,Wavelength[nm],Average
0,320.469,-6.0
1,323.166,61.0
2,325.861,87.0
3,328.553,101.0
4,331.243,86.0
5,333.93,117.0
6,336.615,117.0
7,339.297,97.0
8,341.976,112.0
9,344.653,115.0
10,347.327,121.0
11,349.998,154.0
12,352.666,170.0
13,355.331,172.0
14,357.994,208.0
15,360.653,266.0
16,363.309,309.0
17,365.962,511.0
18,368.612,865.0
19,371.259,1653.0
20,373.903,3967.0
21,376.543,9505.0
22,379.18,20353.0
23,381.813,37620.0
24,384.443,53723.0
25,387.07,54419.0
26,389.693,54587.0
27,392.313,54577.0
28,394.929,54531.0
29,397.541,54656.0
30,400.15,54496.0
31,402.755,44478.0
32,405.356,32843.0
33,407.954,23083.0
34,410.547,15720.0
35,413.137,10753.0
36,415.723,7635.0
37,418.305,5366.0
38,420.883,3740.0
39,423.457,2649.0
40,426.027,1949.0
41,428.593,1483.0
42,431.154,1213.0
43,433.712,983.0
44,436.265,841.0
45,438.814,730.0
46,441.359,709.0
47,443.9,603.0
48,446.436,598.0
49,448.967,548.0
50,451.495,571.0
51,454.018,527.0
52,456.536,554.0
53,459.05,549.0
54,461.559,524.0
55,464.064,537.0
56,466.564,574.0
57,469.06,554.0
58,471.551,571.0
59,474.037,598.0
60,476.518,647.0
61,478.995,575.0
62,481.467,617.0
63,483.934,636.0
64,486.396,610.0
65,488.853,637.0
66,491.305,638.0
67,493.753,608.0
68,496.195,708.0
69,498.632,719.0
70,501.065,690.0
71,503.492,714.0
72,505.914,758.0
73,508.332,746.0
74,510.743,753.0
75,513.15,753.0
76,515.552,746.0
77,517.948,748.0
78,520.339,765.0
79,522.725,712.0
80,525.106,713.0
81,527.481,698.0
82,529.851,703.0
83,532.216,708.0
84,534.575,745.0
85,536.929,704.0
86,539.277,711.0
87,541.62,648.0
88,543.957,617.0
89,546.289,644.0
90,548.616,546.0
91,550.936,578.0
92,553.252,562.0
93,555.561,499.0
94,557.865,526.0
95,560.164,447.0
96,562.457,505.0
97,564.744,474.0
98,567.025,460.0
99,569.301,429.0
100,571.571,390.0
101,573.835,395.0
102,576.093,406.0
103,578.346,331.0
104,580.593,355.0
105,582.834,339.0
106,585.069,328.0
107,587.299,316.0
108,589.522,310.0
109,591.74,273.0
110,593.952,257.0
111,596.158,203.0
112,598.358,211.0
113,600.551,273.0
114,602.739,234.0
115,604.922,220.0
116,607.098,234.0
117,609.268,218.0
118,611.432,207.0
119,613.59,195.0
120,615.742,173.0
121,617.887,161.0
122,620.027,149.0
123,622.161,159.0
124,624.289,159.0
125,626.41,170.0
126,628.526,154.0
127,630.635,101.0
128,632.738,175.0
129,634.835,129.0
130,636.926,104.0
131,639.011,128.0
132,641.089,121.0
133,643.162,101.0
134,645.228,109.0
135,647.288,123.0
136,649.341,91.0
137,651.389,83.0
138,653.43,73.0
139,655.465,32.0
140,657.494,80.0
141,659.516,116.0
142,661.532,84.0
143,663.542,64.0
144,665.546,69.0
145,667.543,68.0
146,669.535,89.0
147,671.519,56.0
148,673.498,66.0
149,675.47,75.0
150,677.436,70.0
151,679.396,49.0
152,681.349,94.0
153,683.296,60.0
154,685.236,56.0
155,687.171,77.0
156,689.099,70.0
157,691.02,70.0
158,692.935,57.0
159,694.844,58.0
160,696.747,23.0
161,698.643,41.0
162,700.533,50.0
163,702.416,48.0
164,704.293,48.0
165,706.164,27.0
166,708.029,47.0
167,709.887,69.0
168,711.738,32.0
169,713.584,10.0
170,715.423,24.0
171,717.255,24.0
172,719.082,-5.0
173,720.901,15.0
174,722.715,41.0
175,724.522,13.0
176,726.323,12.0
177,728.117,15.0
178,729.905,42.0
179,731.687,7.0
180,733.462,14.0
181,735.232,5.0
182,736.994,32.0
183,738.751,5.0
184,740.501,10.0
185,742.244,2.0
186,743.982,16.0
187,745.713,35.0
188,747.437,-1.0
189,749.156,20.0
190,750.868,30.0
191,752.573,8.0
192,754.273,25.0
193,755.966,33.0
194,757.653,15.0
195,759.333,10.0
196,761.008,4.0
197,762.676,19.0
198,764.337,27.0
199,765.993,39.0
200,767.642,7.0
201,769.285,-3.0
202,770.922,7.0
203,772.552,24.0
204,774.176,42.0
205,775.795,3.0
206,777.406,16.0
207,779.012,3.0
208,780.611,-16.0
209,782.205,-4.0
210,783.792,18.0
211,785.373,41.0
212,786.947,23.0
213,788.516,9.0
214,790.078,5.0
215,791.635,18.0
216,793.185,35.0
217,794.729,32.0
218,796.267,11.0
219,797.799,17.0
220,799.325,20.0
221,800.844,-2.0
222,802.358,5.0
223,803.866,-2.0
224,805.368,-9.0
225,806.863,30.0
226,808.353,35.0
227,809.836,-16.0
228,811.314,4.0
229,812.786,6.0
230,814.252,5.0
231,815.711,37.0
232,817.165,26.0
233,818.613,-11.0
234,820.055,15.0
235,821.491,38.0
236,822.922,36.0
237,824.346,10.0
238,825.765,3.0
239,827.178,54.0
240,828.585,10.0
241,829.986,15.0
242,831.381,17.0
243,832.771,18.0
244,834.155,35.0
245,835.533,24.0
246,836.906,19.0
247,838.272,33.0
248,839.633,11.0
249,840.989,45.0
250,842.339,12.0
251,843.683,44.0
252,845.021,31.0
253,846.354,7.0
254,847.682,-15.0
255,849.004,3.0
256,850.32,36.0
257,851.631,14.0
258,852.936,29.0
259,854.236,-10.0
260,855.53,2.0
261,856.819,24.0
262,858.102,20.0
263,859.38,0.0
264,860.653,29.0
265,861.92,13.0
266,863.182,-7.0
267,864.439,3.0
268,865.69,-14.0
269,866.936,7.0
270,868.177,5.0
271,869.412,8.0
272,870.642,-17.0
273,871.867,34.0
274,873.087,4.0
275,874.302,-14.0
276,875.512,12.0
277,876.716,-7.0
278,877.916,3.0
279,879.11,-6.0
280,880.299,28.0
281,881.483,27.0
282,882.663,-13.0
283,883.837,19.0
284,885.006,36.0
285,886.17,20.0
286,887.33,30.0
287,888.484,12.0
