,Wavelength[nm],Average
0,320.469,46.0
1,323.166,98.0
2,325.861,70.0
3,328.553,120.0
4,331.243,112.0
5,333.93,127.0
6,336.615,123.0
7,339.297,113.0
8,341.976,140.0
9,344.653,113.0
10,347.327,179.0
11,349.998,165.0
12,352.666,213.0
13,355.331,219.0
14,357.994,264.0
15,360.653,323.0
16,363.309,378.0
17,365.962,576.0
18,368.612,898.0
19,371.259,1797.0
20,373.903,4011.0
21,376.543,9496.0
22,379.18,20367.0
23,381.813,37264.0
24,384.443,54420.0
25,387.07,54518.0
26,389.693,54597.0
27,392.313,54618.0
28,394.929,54521.0
29,397.541,54662.0
30,400.15,54564.0
31,402.755,46335.0
32,405.356,34272.0
33,407.954,24099.0
34,410.547,16351.0
35,413.137,11348.0
36,415.723,7939.0
37,418.305,5658.0
38,420.883,3745.0
39,423.457,2619.0
40,426.027,1958.0
41,428.593,1540.0
42,431.154,1205.0
43,433.712,1000.0
44,436.265,886.0
45,438.814,826.0
46,441.359,675.0
47,443.9,618.0
48,446.436,617.0
49,448.967,559.0
50,451.495,607.0
51,454.018,564.0
52,456.536,572.0
53,459.05,574.0
54,461.559,621.0
55,464.064,595.0
56,466.564,570.0
57,469.06,592.0
58,471.551,566.0
59,474.037,614.0
60,476.518,646.0
61,478.995,591.0
62,481.467,640.0
63,483.934,661.0
64,486.396,689.0
65,488.853,738.0
66,491.305,711.0
67,493.753,749.0
68,496.195,784.0
69,498.632,866.0
70,501.065,807.0
71,503.492,902.0
72,505.914,871.0
73,508.332,932.0
74,510.743,862.0
75,513.15,961.0
76,515.552,995.0
77,517.948,955.0
78,520.339,940.0
79,522.725,945.0
80,525.106,977.0
81,527.481,865.0
82,529.851,902.0
83,532.216,943.0
84,534.575,941.0
85,536.929,886.0
86,539.277,876.0
87,541.62,871.0
88,543.957,837.0
89,546.289,804.0
90,548.616,802.0
91,550.936,709.0
92,553.252,750.0
93,555.561,651.0
94,557.865,692.0
95,560.164,634.0
96,562.457,613.0
97,564.744,640.0
98,567.025,562.0
99,569.301,553.0
100,571.571,520.0
101,573.835,522.0
102,576.093,475.0
103,578.346,478.0
104,580.593,446.0
105,582.834,414.0
106,585.069,379.0
107,587.299,420.0
108,589.522,397.0
109,591.74,422.0
110,593.952,372.0
111,596.158,345.0
112,598.358,337.0
113,600.551,311.0
114,602.739,272.0
115,604.922,328.0
116,607.098,292.0
117,609.268,227.0
118,611.432,243.0
119,613.59,246.0
120,615.742,243.0
121,617.887,191.0
122,620.027,211.0
123,622.161,171.0
124,624.289,198.0
125,626.41,158.0
126,628.526,183.0
127,630.635,128.0
128,632.738,131.0
129,634.835,184.0
130,636.926,127.0
131,639.011,132.0
132,641.089,127.0
133,643.162,100.0
134,645.228,113.0
135,647.288,110.0
136,649.341,110.0
137,651.389,84.0
138,653.43,92.0
139,655.465,118.0
140,657.494,96.0
141,659.516,75.0
142,661.532,85.0
143,663.542,50.0
144,665.546,62.0
145,667.543,65.0
146,669.535,56.0
147,671.519,85.0
148,673.498,61.0
149,675.47,88.0
150,677.436,52.0
151,679.396,76.0
152,681.349,56.0
153,683.296,72.0
154,685.236,25.0
155,687.171,34.0
156,689.099,23.0
157,691.02,63.0
158,692.935,66.0
159,694.844,35.0
160,696.747,41.0
161,698.643,45.0
162,700.533,35.0
163,702.416,43.0
164,704.293,39.0
165,706.164,37.0
166,708.029,-7.0
167,709.887,42.0
168,711.738,23.0
169,713.584,16.0
170,715.423,12.0
171,717.255,7.0
172,719.082,25.0
173,720.901,0.0
174,722.715,6.0
175,724.522,13.0
176,726.323,15.0
177,728.117,12.0
178,729.905,-2.0
179,731.687,4.0
180,733.462,74.0
181,735.232,8.0
182,736.994,11.0
183,738.751,14.0
184,740.501,-16.0
185,742.244,14.0
186,743.982,49.0
187,745.713,2.0
188,747.437,-15.0
189,749.156,2.0
190,750.868,-2.0
191,752.573,-26.0
192,754.273,4.0
193,755.966,46.0
194,757.653,12.0
195,759.333,12.0
196,761.008,35.0
197,762.676,29.0
198,764.337,15.0
199,765.993,25.0
200,767.642,24.0
201,769.285,5.0
202,770.922,43.0
203,772.552,25.0
204,774.176,30.0
205,775.795,3.0
206,777.406,21.0
207,779.012,3.0
208,780.611,-18.0
209,782.205,27.0
210,783.792,18.0
211,785.373,7.0
212,786.947,3.0
213,788.516,-2.0
214,790.078,10.0
215,791.635,0.0
216,793.185,43.0
217,794.729,1.0
218,796.267,-18.0
219,797.799,12.0
220,799.325,-10.0
221,800.844,9.0
222,802.358,8.0
223,803.866,13.0
224,805.368,-4.0
225,806.863,26.0
226,808.353,-2.0
227,809.836,33.0
228,811.314,2.0
229,812.786,-2.0
230,814.252,3.0
231,815.711,10.0
232,817.165,37.0
233,818.613,-5.0
234,820.055,39.0
235,821.491,10.0
236,822.922,31.0
237,824.346,9.0
238,825.765,-3.0
239,827.178,8.0
240,828.585,10.0
241,829.986,-3.0
242,831.381,7.0
243,832.771,4.0
244,834.155,-3.0
245,835.533,39.0
246,836.906,41.0
247,838.272,13.0
248,839.633,12.0
249,840.989,-4.0
250,842.339,2.0
251,843.683,19.0
252,845.021,16.0
253,846.354,-3.0
254,847.682,7.0
255,849.004,-13.0
256,850.32,26.0
257,851.631,8.0
258,852.936,-23.0
259,854.236,20.0
260,855.53,22.0
261,856.819,4.0
262,858.102,12.0
263,859.38,19.0
264,860.653,-13.0
265,861.92,-24.0
266,863.182,-1.0
267,864.439,-14.0
268,865.69,11.0
269,866.936,-1.0
270,868.177,31.0
271,869.412,21.0
272,870.642,13.0
273,871.867,12.0
274,873.087,17.0
275,874.302,2.0
276,875.512,31.0
277,876.716,34.0
278,877.916,42.0
279,879.11,15.0
280,880.299,-28.0
281,881.483,7.0
282,882.663,-9.0
283,883.837,11.0
284,885.006,14.0
285,886.17,2.0
286,887.33,15.0
287,888.484,17.0
