,Wavelength[nm],Average
0,320.469,12.0
1,323.166,87.0
2,325.861,98.0
3,328.553,95.0
4,331.243,74.0
5,333.93,91.0
6,336.615,123.0
7,339.297,115.0
8,341.976,143.0
9,344.653,173.0
10,347.327,144.0
11,349.998,178.0
12,352.666,195.0
13,355.331,223.0
14,357.994,253.0
15,360.653,309.0
16,363.309,490.0
17,365.962,683.0
18,368.612,1125.0
19,371.259,2187.0
20,373.903,4825.0
21,376.543,11356.0
22,379.18,24414.0
23,381.813,43688.0
24,384.443,54572.0
25,387.07,54465.0
26,389.693,54623.0
27,392.313,54615.0
28,394.929,54505.0
29,397.541,54639.0
30,400.15,54549.0
31,402.755,51728.0
32,405.356,40041.0
33,407.954,28414.0
34,410.547,19383.0
35,413.137,13261.0
36,415.723,9327.0
37,418.305,6629.0
38,420.883,4537.0
39,423.457,3241.0
40,426.027,2381.0
41,428.593,1845.0
42,431.154,1484.0
43,433.712,1205.0
44,436.265,1022.0
45,438.814,908.0
46,441.359,797.0
47,443.9,735.0
48,446.436,716.0
49,448.967,685.0
50,451.495,628.0
51,454.018,633.0
52,456.536,620.0
53,459.05,647.0
54,461.559,648.0
55,464.064,666.0
56,466.564,670.0
57,469.06,715.0
58,471.551,666.0
59,474.037,708.0
60,476.518,710.0
61,478.995,773.0
62,481.467,750.0
63,483.934,756.0
64,486.396,790.0
65,488.853,808.0
66,491.305,818.0
67,493.753,862.0
68,496.195,904.0
69,498.632,970.0
70,501.065,982.0
71,503.492,972.0
72,505.914,1031.0
73,508.332,1022.0
74,510.743,1047.0
75,513.15,1071.0
76,515.552,1027.0
77,517.948,1028.0
78,520.339,1067.0
79,522.725,1066.0
80,525.106,1038.0
81,527.481,994.0
82,529.851,1046.0
83,532.216,1050.0
84,534.575,1081.0
85,536.929,1061.0
86,539.277,1074.0
87,541.62,1006.0
88,543.957,1016.0
89,546.289,926.0
90,548.616,888.0
91,550.936,844.0
92,553.252,863.0
93,555.561,816.0
94,557.865,772.0
95,560.164,702.0
96,562.457,732.0
97,564.744,669.0
98,567.025,682.0
99,569.301,604.0
100,571.571,649.0
101,573.835,583.0
102,576.093,540.0
103,578.346,543.0
104,580.593,556.0
105,582.834,510.0
106,585.069,482.0
107,587.299,504.0
108,589.522,460.0
109,591.74,380.0
110,593.952,408.0
111,596.158,359.0
112,598.358,354.0
113,600.551,338.0
114,602.739,310.0
115,604.922,324.0
116,607.098,290.0
117,609.268,310.0
118,611.432,261.0
119,613.59,267.0
120,615.742,237.0
121,617.887,271.0
122,620.027,212.0
123,622.161,204.0
124,624.289,210.0
125,626.41,184.0
126,628.526,210.0
127,630.635,211.0
128,632.738,188.0
129,634.835,199.0
130,636.926,169.0
131,639.011,179.0
132,641.089,187.0
133,643.162,155.0
134,645.228,113.0
135,647.288,116.0
136,649.341,119.0
137,651.389,133.0
138,653.43,105.0
139,655.465,114.0
140,657.494,108.0
141,659.516,128.0
142,661.532,82.0
143,663.542,90.0
144,665.546,119.0
145,667.543,36.0
146,669.535,84.0
147,671.519,92.0
148,673.498,40.0
149,675.47,78.0
150,677.436,54.0
151,679.396,100.0
152,681.349,110.0
153,683.296,78.0
154,685.236,80.0
155,687.171,39.0
156,689.099,46.0
157,691.02,53.0
158,692.935,46.0
159,694.844,27.0
160,696.747,12.0
161,698.643,44.0
162,700.533,33.0
163,702.416,42.0
164,704.293,25.0
165,706.164,61.0
166,708.029,19.0
167,709.887,27.0
168,711.738,24.0
169,713.584,25.0
170,715.423,47.0
171,717.255,33.0
172,719.082,-5.0
173,720.901,58.0
174,722.715,-3.0
175,724.522,5.0
176,726.323,37.0
177,728.117,-7.0
178,729.905,36.0
179,731.687,13.0
180,733.462,14.0
181,735.232,-5.0
182,736.994,-21.0
183,738.751,5.0
184,740.501,5.0
185,742.244,3.0
186,743.982,-7.0
187,745.713,-16.0
188,747.437,-17.0
189,749.156,23.0
190,750.868,-12.0
191,752.573,1.0
192,754.273,-26.0
193,755.966,-15.0
194,757.653,8.0
195,759.333,-11.0
196,761.008,19.0
197,762.676,4.0
198,764.337,16.0
199,765.993,44.0
200,767.642,-29.0
201,769.285,5.0
202,770.922,34.0
203,772.552,4.0
204,774.176,38.0
205,775.795,27.0
206,777.406,0.0
207,779.012,-11.0
208,780.611,3.0
209,782.205,-11.0
210,783.792,-23.0
211,785.373,-27.0
212,786.947,-15.0
213,788.516,-2.0
214,790.078,-27.0
215,791.635,-25.0
216,793.185,-42.0
217,794.729,1.0
218,796.267,-34.0
219,797.799,-7.0
220,799.325,-6.0
221,800.844,-2.0
222,802.358,3.0
223,803.866,-11.0
224,805.368,49.0
225,806.863,-15.0
226,808.353,19.0
227,809.836,29.0
228,811.314,16.0
229,812.786,20.0
230,814.252,1.0
231,815.711,26.0
232,817.165,15.0
233,818.613,19.0
234,820.055,11.0
235,821.491,-12.0
236,822.922,-5.0
237,824.346,-6.0
238,825.765,-20.0
239,827.178,-6.0
240,828.585,-24.0
241,829.986,10.0
242,831.381,8.0
243,832.771,-20.0
244,834.155,19.0
245,835.533,-16.0
246,836.906,-14.0
247,838.272,40.0
248,839.633,1.0
249,840.989,19.0
250,842.339,-13.0
251,843.683,-26.0
252,845.021,-26.0
253,846.354,-24.0
254,847.682,22.0
255,849.004,15.0
256,850.32,12.0
257,851.631,23.0
258,852.936,-7.0
259,854.236,-2.0
260,855.53,10.0
261,856.819,13.0
262,858.102,14.0
263,859.38,5.0
264,860.653,27.0
265,861.92,8.0
266,863.182,-10.0
267,864.439,-14.0
268,865.69,3.0
269,866.936,-12.0
270,868.177,0.0
271,869.412,-16.0
272,870.642,19.0
273,871.867,-16.0
274,873.087,-14.0
275,874.302,-7.0
276,875.512,-17.0
277,876.716,6.0
278,877.916,-28.0
279,879.11,-8.0
280,880.299,3.0
281,881.483,-1.0
282,882.663,31.0
283,883.837,5.0
284,885.006,20.0
285,886.17,18.0
286,887.33,10.0
287,888.484,-3.0
