,Wavelength[nm],Average
0,320.469,-7.0
1,323.166,77.0
2,325.861,91.0
3,328.553,93.0
4,331.243,129.0
5,333.93,113.0
6,336.615,122.0
7,339.297,141.0
8,341.976,145.0
9,344.653,142.0
10,347.327,134.0
11,349.998,172.0
12,352.666,169.0
13,355.331,242.0
14,357.994,281.0
15,360.653,338.0
16,363.309,453.0
17,365.962,699.0
18,368.612,1135.0
19,371.259,2126.0
20,373.903,4929.0
21,376.543,11564.0
22,379.18,24535.0
23,381.813,43959.0
24,384.443,54565.0
25,387.07,54509.0
26,389.693,54712.0
27,392.313,54694.0
28,394.929,54649.0
29,397.541,54750.0
30,400.15,54813.0
31,402.755,51270.0
32,405.356,40229.0
33,407.954,28574.0
34,410.547,19591.0
35,413.137,13409.0
36,415.723,9358.0
37,418.305,6577.0
38,420.883,4513.0
39,423.457,3216.0
40,426.027,2414.0
41,428.593,1805.0
42,431.154,1406.0
43,433.712,1175.0
44,436.265,975.0
45,438.814,912.0
46,441.359,827.0
47,443.9,736.0
48,446.436,667.0
49,448.967,639.0
50,451.495,695.0
51,454.018,613.0
52,456.536,625.0
53,459.05,602.0
54,461.559,577.0
55,464.064,655.0
56,466.564,655.0
57,469.06,682.0
58,471.551,673.0
59,474.037,720.0
60,476.518,650.0
61,478.995,706.0
62,481.467,768.0
63,483.934,755.0
64,486.396,716.0
65,488.853,776.0
66,491.305,818.0
67,493.753,841.0
68,496.195,881.0
69,498.632,911.0
70,501.065,911.0
71,503.492,939.0
72,505.914,990.0
73,508.332,1047.0
74,510.743,971.0
75,513.15,1057.0
76,515.552,1023.0
77,517.948,1043.0
78,520.339,994.0
79,522.725,1045.0
80,525.106,1019.0
81,527.481,1043.0
82,529.851,1057.0
83,532.216,1007.0
84,534.575,1030.0
85,536.929,998.0
86,539.277,1014.0
87,541.62,996.0
88,543.957,931.0
89,546.289,857.0
90,548.616,915.0
91,550.936,841.0
92,553.252,807.0
93,555.561,773.0
94,557.865,765.0
95,560.164,721.0
96,562.457,693.0
97,564.744,629.0
98,567.025,619.0
99,569.301,613.0
100,571.571,578.0
101,573.835,570.0
102,576.093,561.0
103,578.346,546.0
104,580.593,480.0
105,582.834,480.0
106,585.069,425.0
107,587.299,421.0
108,589.522,389.0
109,591.74,410.0
110,593.952,365.0
111,596.158,376.0
112,598.358,363.0
113,600.551,323.0
114,602.739,322.0
115,604.922,271.0
116,607.098,252.0
117,609.268,276.0
118,611.432,263.0
119,613.59,248.0
120,615.742,188.0
121,617.887,209.0
122,620.027,211.0
123,622.161,192.0
124,624.289,184.0
125,626.41,175.0
126,628.526,122.0
127,630.635,196.0
128,632.738,190.0
129,634.835,185.0
130,636.926,160.0
131,639.011,147.0
132,641.089,133.0
133,643.162,132.0
134,645.228,134.0
135,647.288,120.0
136,649.341,99.0
137,651.389,94.0
138,653.43,99.0
139,655.465,121.0
140,657.494,86.0
141,659.516,81.0
142,661.532,68.0
143,663.542,95.0
144,665.546,77.0
145,667.543,90.0
146,669.535,74.0
147,671.519,68.0
148,673.498,52.0
149,675.47,45.0
150,677.436,60.0
151,679.396,61.0
152,681.349,71.0
153,683.296,37.0
154,685.236,40.0
155,687.171,45.0
156,689.099,90.0
157,691.02,65.0
158,692.935,82.0
159,694.844,54.0
160,696.747,40.0
161,698.643,25.0
162,700.533,53.0
163,702.416,49.0
164,704.293,34.0
165,706.164,33.0
166,708.029,25.0
167,709.887,13.0
168,711.738,27.0
169,713.584,35.0
170,715.423,20.0
171,717.255,34.0
172,719.082,-2.0
173,720.901,-12.0
174,722.715,15.0
175,724.522,22.0
176,726.323,41.0
177,728.117,19.0
178,729.905,17.0
179,731.687,24.0
180,733.462,-1.0
181,735.232,18.0
182,736.994,12.0
183,738.751,21.0
184,740.501,24.0
185,742.244,-2.0
186,743.982,6.0
187,745.713,6.0
188,747.437,27.0
189,749.156,-13.0
190,750.868,9.0
191,752.573,16.0
192,754.273,14.0
193,755.966,-28.0
194,757.653,-16.0
195,759.333,6.0
196,761.008,7.0
197,762.676,13.0
198,764.337,-8.0
199,765.993,-11.0
200,767.642,25.0
201,769.285,2.0
202,770.922,-27.0
203,772.552,6.0
204,774.176,24.0
205,775.795,23.0
206,777.406,17.0
207,779.012,-2.0
208,780.611,4.0
209,782.205,16.0
210,783.792,13.0
211,785.373,-15.0
212,786.947,0.0
213,788.516,-1.0
214,790.078,25.0
215,791.635,19.0
216,793.185,24.0
217,794.729,0.0
218,796.267,-2.0
219,797.799,-4.0
220,799.325,10.0
221,800.844,-37.0
222,802.358,-18.0
223,803.866,-13.0
224,805.368,-10.0
225,806.863,-6.0
226,808.353,12.0
227,809.836,2.0
228,811.314,22.0
229,812.786,-3.0
230,814.252,-3.0
231,815.711,-14.0
232,817.165,-6.0
233,818.613,-9.0
234,820.055,42.0
235,821.491,14.0
236,822.922,-26.0
237,824.346,37.0
238,825.765,-3.0
239,827.178,-22.0
240,828.585,-20.0
241,829.986,22.0
242,831.381,50.0
243,832.771,21.0
244,834.155,8.0
245,835.533,-24.0
246,836.906,-23.0
247,838.272,-15.0
248,839.633,1.0
249,840.989,20.0
250,842.339,29.0
251,843.683,-20.0
252,845.021,4.0
253,846.354,0.0
254,847.682,-24.0
255,849.004,-4.0
256,850.32,0.0
257,851.631,-16.0
258,852.936,-4.0
259,854.236,7.0
260,855.53,10.0
261,856.819,32.0
262,858.102,9.0
263,859.38,-34.0
264,860.653,6.0
265,861.92,16.0
266,863.182,12.0
267,864.439,12.0
268,865.69,12.0
269,866.936,-15.0
270,868.177,9.0
271,869.412,12.0
272,870.642,5.0
273,871.867,-13.0
274,873.087,9.0
275,874.302,14.0
276,875.512,21.0
277,876.716,-18.0
278,877.916,11.0
279,879.11,-19.0
280,880.299,25.0
281,881.483,-9.0
282,882.663,3.0
283,883.837,16.0
284,885.006,36.0
285,886.17,16.0
286,887.33,2.0
287,888.484,-1.0
