,Wavelength[nm],Average
0,320.469,5.0
1,323.166,107.0
2,325.861,115.0
3,328.553,131.0
4,331.243,160.0
5,333.93,130.0
6,336.615,125.0
7,339.297,135.0
8,341.976,197.0
9,344.653,199.0
10,347.327,200.0
11,349.998,201.0
12,352.666,239.0
13,355.331,246.0
14,357.994,309.0
15,360.653,380.0
16,363.309,510.0
17,365.962,780.0
18,368.612,1270.0
19,371.259,2386.0
20,373.903,5264.0
21,376.543,12486.0
22,379.18,26620.0
23,381.813,46955.0
24,384.443,54668.0
25,387.07,54428.0
26,389.693,54841.0
27,392.313,54797.0
28,394.929,54685.0
29,397.541,54738.0
30,400.15,54763.0
31,402.755,54482.0
32,405.356,44102.0
33,407.954,31846.0
34,410.547,21926.0
35,413.137,15043.0
36,415.723,10570.0
37,418.305,7376.0
38,420.883,5058.0
39,423.457,3584.0
40,426.027,2606.0
41,428.593,2056.0
42,431.154,1629.0
43,433.712,1341.0
44,436.265,1150.0
45,438.814,998.0
46,441.359,882.0
47,443.9,894.0
48,446.436,820.0
49,448.967,760.0
50,451.495,788.0
51,454.018,746.0
52,456.536,766.0
53,459.05,756.0
54,461.559,786.0
55,464.064,773.0
56,466.564,800.0
57,469.06,767.0
58,471.551,774.0
59,474.037,794.0
60,476.518,843.0
61,478.995,829.0
62,481.467,876.0
63,483.934,854.0
64,486.396,858.0
65,488.853,938.0
66,491.305,956.0
67,493.753,1015.0
68,496.195,1035.0
69,498.632,1044.0
70,501.065,1117.0
71,503.492,1165.0
72,505.914,1172.0
73,508.332,1177.0
74,510.743,1186.0
75,513.15,1265.0
76,515.552,1226.0
77,517.948,1276.0
78,520.339,1232.0
79,522.725,1243.0
80,525.106,1225.0
81,527.481,1254.0
82,529.851,1203.0
83,532.216,1219.0
84,534.575,1208.0
85,536.929,1234.0
86,539.277,1180.0
87,541.62,1142.0
88,543.957,1170.0
89,546.289,1086.0
90,548.616,1055.0
91,550.936,1004.0
92,553.252,964.0
93,555.561,913.0
94,557.865,924.0
95,560.164,813.0
96,562.457,815.0
97,564.744,765.0
98,567.025,776.0
99,569.301,744.0
100,571.571,672.0
101,573.835,667.0
102,576.093,638.0
103,578.346,599.0
104,580.593,560.0
105,582.834,576.0
106,585.069,530.0
107,587.299,480.0
108,589.522,495.0
109,591.74,476.0
110,593.952,426.0
111,596.158,400.0
112,598.358,421.0
113,600.551,379.0
114,602.739,377.0
115,604.922,339.0
116,607.098,355.0
117,609.268,326.0
118,611.432,279.0
119,613.59,284.0
120,615.742,258.0
121,617.887,264.0
122,620.027,289.0
123,622.161,255.0
124,624.289,209.0
125,626.41,248.0
126,628.526,209.0
127,630.635,179.0
128,632.738,188.0
129,634.835,163.0
130,636.926,195.0
131,639.011,159.0
132,641.089,159.0
133,643.162,158.0
134,645.228,155.0
135,647.288,118.0
136,649.341,137.0
137,651.389,122.0
138,653.43,114.0
139,655.465,98.0
140,657.494,83.0
141,659.516,115.0
142,661.532,82.0
143,663.542,92.0
144,665.546,93.0
145,667.543,60.0
146,669.535,82.0
147,671.519,80.0
148,673.498,86.0
149,675.47,74.0
150,677.436,106.0
151,679.396,98.0
152,681.349,68.0
153,683.296,25.0
154,685.236,75.0
155,687.171,76.0
156,689.099,37.0
157,691.02,76.0
158,692.935,87.0
159,694.844,49.0
160,696.747,55.0
161,698.643,89.0
162,700.533,67.0
163,702.416,37.0
164,704.293,71.0
165,706.164,64.0
166,708.029,48.0
167,709.887,38.0
168,711.738,90.0
169,713.584,43.0
170,715.423,32.0
171,717.255,13.0
172,719.082,21.0
173,720.901,26.0
174,722.715,45.0
175,724.522,23.0
176,726.323,6.0
177,728.117,26.0
178,729.905,31.0
179,731.687,48.0
180,733.462,41.0
181,735.232,32.0
182,736.994,27.0
183,738.751,51.0
184,740.501,29.0
185,742.244,-17.0
186,743.982,31.0
187,745.713,16.0
188,747.437,-1.0
189,749.156,33.0
190,750.868,51.0
191,752.573,26.0
192,754.273,17.0
193,755.966,20.0
194,757.653,19.0
195,759.333,34.0
196,761.008,11.0
197,762.676,15.0
198,764.337,12.0
199,765.993,55.0
200,767.642,32.0
201,769.285,10.0
202,770.922,16.0
203,772.552,-5.0
204,774.176,11.0
205,775.795,4.0
206,777.406,27.0
207,779.012,-21.0
208,780.611,43.0
209,782.205,19.0
210,783.792,21.0
211,785.373,-5.0
212,786.947,8.0
213,788.516,22.0
214,790.078,15.0
215,791.635,5.0
216,793.185,52.0
217,794.729,8.0
218,796.267,-13.0
219,797.799,4.0
220,799.325,-3.0
221,800.844,63.0
222,802.358,40.0
223,803.866,19.0
224,805.368,21.0
225,806.863,32.0
226,808.353,-6.0
227,809.836,12.0
228,811.314,-30.0
229,812.786,15.0
230,814.252,27.0
231,815.711,35.0
232,817.165,9.0
233,818.613,37.0
234,820.055,11.0
235,821.491,28.0
236,822.922,9.0
237,824.346,13.0
238,825.765,2.0
239,827.178,26.0
240,828.585,48.0
241,829.986,19.0
242,831.381,-3.0
243,832.771,5.0
244,834.155,17.0
245,835.533,-8.0
246,836.906,43.0
247,838.272,53.0
248,839.633,3.0
249,840.989,-12.0
250,842.339,-16.0
251,843.683,4.0
252,845.021,48.0
253,846.354,5.0
254,847.682,5.0
255,849.004,45.0
256,850.32,22.0
257,851.631,10.0
258,852.936,26.0
259,854.236,36.0
260,855.53,27.0
261,856.819,2.0
262,858.102,17.0
263,859.38,30.0
264,860.653,13.0
265,861.92,19.0
266,863.182,22.0
267,864.439,27.0
268,865.69,20.0
269,866.936,32.0
270,868.177,-25.0
271,869.412,20.0
272,870.642,22.0
273,871.867,15.0
274,873.087,14.0
275,874.302,-1.0
276,875.512,22.0
277,876.716,-1.0
278,877.916,0.0
279,879.11,-10.0
280,880.299,-4.0
281,881.483,17.0
282,882.663,-6.0
283,883.837,22.0
284,885.006,9.0
285,886.17,-29.0
286,887.33,38.0
287,888.484,26.0
