,Wavelength[nm],Average
0,320.469,2.0
1,323.166,97.0
2,325.861,112.0
3,328.553,100.0
4,331.243,103.0
5,333.93,101.0
6,336.615,129.0
7,339.297,101.0
8,341.976,137.0
9,344.653,171.0
10,347.327,200.0
11,349.998,155.0
12,352.666,228.0
13,355.331,232.0
14,357.994,279.0
15,360.653,393.0
16,363.309,518.0
17,365.962,712.0
18,368.612,1229.0
19,371.259,2416.0
20,373.903,5315.0
21,376.543,12469.0
22,379.18,26731.0
23,381.813,47244.0
24,384.443,54669.0
25,387.07,54498.0
26,389.693,54867.0
27,392.313,54885.0
28,394.929,54754.0
29,397.541,54826.0
30,400.15,54724.0
31,402.755,54418.0
32,405.356,44118.0
33,407.954,31573.0
34,410.547,21752.0
35,413.137,14811.0
36,415.723,10468.0
37,418.305,7379.0
38,420.883,5022.0
39,423.457,3555.0
40,426.027,2590.0
41,428.593,1974.0
42,431.154,1589.0
43,433.712,1328.0
44,436.265,1081.0
45,438.814,1012.0
46,441.359,856.0
47,443.9,803.0
48,446.436,740.0
49,448.967,791.0
50,451.495,725.0
51,454.018,729.0
52,456.536,659.0
53,459.05,715.0
54,461.559,701.0
55,464.064,730.0
56,466.564,742.0
57,469.06,781.0
58,471.551,762.0
59,474.037,771.0
60,476.518,758.0
61,478.995,844.0
62,481.467,784.0
63,483.934,835.0
64,486.396,866.0
65,488.853,928.0
66,491.305,939.0
67,493.753,918.0
68,496.195,966.0
69,498.632,1022.0
70,501.065,1063.0
71,503.492,1104.0
72,505.914,1115.0
73,508.332,1210.0
74,510.743,1140.0
75,513.15,1213.0
76,515.552,1226.0
77,517.948,1229.0
78,520.339,1207.0
79,522.725,1198.0
80,525.106,1170.0
81,527.481,1175.0
82,529.851,1184.0
83,532.216,1124.0
84,534.575,1161.0
85,536.929,1094.0
86,539.277,1141.0
87,541.62,1087.0
88,543.957,1111.0
89,546.289,1005.0
90,548.616,1013.0
91,550.936,957.0
92,553.252,914.0
93,555.561,838.0
94,557.865,870.0
95,560.164,796.0
96,562.457,794.0
97,564.744,797.0
98,567.025,723.0
99,569.301,724.0
100,571.571,669.0
101,573.835,663.0
102,576.093,632.0
103,578.346,565.0
104,580.593,559.0
105,582.834,524.0
106,585.069,503.0
107,587.299,495.0
108,589.522,466.0
109,591.74,437.0
110,593.952,408.0
111,596.158,395.0
112,598.358,391.0
113,600.551,355.0
114,602.739,366.0
115,604.922,361.0
116,607.098,356.0
117,609.268,286.0
118,611.432,291.0
119,613.59,270.0
120,615.742,223.0
121,617.887,245.0
122,620.027,183.0
123,622.161,212.0
124,624.289,245.0
125,626.41,188.0
126,628.526,228.0
127,630.635,201.0
128,632.738,189.0
129,634.835,117.0
130,636.926,175.0
131,639.011,155.0
132,641.089,168.0
133,643.162,111.0
134,645.228,130.0
135,647.288,109.0
136,649.341,130.0
137,651.389,71.0
138,653.43,121.0
139,655.465,87.0
140,657.494,67.0
141,659.516,84.0
142,661.532,85.0
143,663.542,57.0
144,665.546,86.0
145,667.543,32.0
146,669.535,90.0
147,671.519,38.0
148,673.498,58.0
149,675.47,93.0
150,677.436,74.0
151,679.396,43.0
152,681.349,57.0
153,683.296,54.0
154,685.236,64.0
155,687.171,28.0
156,689.099,85.0
157,691.02,39.0
158,692.935,24.0
159,694.844,20.0
160,696.747,55.0
161,698.643,-18.0
162,700.533,-23.0
163,702.416,29.0
164,704.293,3.0
165,706.164,12.0
166,708.029,-17.0
167,709.887,22.0
168,711.738,15.0
169,713.584,27.0
170,715.423,24.0
171,717.255,43.0
172,719.082,25.0
173,720.901,37.0
174,722.715,2.0
175,724.522,-16.0
176,726.323,-18.0
177,728.117,25.0
178,729.905,-60.0
179,731.687,1.0
180,733.462,-5.0
181,735.232,-11.0
182,736.994,21.0
183,738.751,-13.0
184,740.501,-19.0
185,742.244,15.0
186,743.982,33.0
187,745.713,-6.0
188,747.437,-19.0
189,749.156,-26.0
190,750.868,-18.0
191,752.573,38.0
192,754.273,-9.0
193,755.966,-8.0
194,757.653,24.0
195,759.333,-12.0
196,761.008,-39.0
197,762.676,-18.0
198,764.337,-8.0
199,765.993,-19.0
200,767.642,52.0
201,769.285,12.0
202,770.922,21.0
203,772.552,-19.0
204,774.176,-25.0
205,775.795,-6.0
206,777.406,16.0
207,779.012,-24.0
208,780.611,-20.0
209,782.205,-16.0
210,783.792,-2.0
211,785.373,14.0
212,786.947,-20.0
213,788.516,-23.0
214,790.078,10.0
215,791.635,-22.0
216,793.185,4.0
217,794.729,3.0
218,796.267,-30.0
219,797.799,3.0
220,799.325,6.0
221,800.844,-1.0
222,802.358,-1.0
223,803.866,8.0
224,805.368,-31.0
225,806.863,-8.0
226,808.353,-38.0
227,809.836,-22.0
228,811.314,-2.0
229,812.786,10.0
230,814.252,9.0
231,815.711,2.0
232,817.165,-31.0
233,818.613,-25.0
234,820.055,-10.0
235,821.491,0.0
236,822.922,-76.0
237,824.346,2.0
238,825.765,-5.0
239,827.178,-1.0
240,828.585,-25.0
241,829.986,2.0
242,831.381,-37.0
243,832.771,-32.0
244,834.155,-17.0
245,835.533,-13.0
246,836.906,-29.0
247,838.272,-20.0
248,839.633,14.0
249,840.989,-37.0
250,842.339,-12.0
251,843.683,0.0
252,845.021,-32.0
253,846.354,-23.0
254,847.682,-26.0
255,849.004,-14.0
256,850.32,4.0
257,851.631,-13.0
258,852.936,-29.0
259,854.236,5.0
260,855.53,1.0
261,856.819,-8.0
262,858.102,-4.0
263,859.38,3.0
264,860.653,0.0
265,861.92,-5.0
266,863.182,-9.0
267,864.439,-17.0
268,865.69,-24.0
269,866.936,-28.0
270,868.177,8.0
271,869.412,-37.0
272,870.642,-11.0
273,871.867,-18.0
274,873.087,-15.0
275,874.302,-4.0
276,875.512,-17.0
277,876.716,-28.0
278,877.916,-30.0
279,879.11,-5.0
280,880.299,-3.0
281,881.483,13.0
282,882.663,-11.0
283,883.837,6.0
284,885.006,5.0
285,886.17,-26.0
286,887.33,10.0
287,888.484,18.0
