,Wavelength[nm],Average
0,320.469,1.0
1,323.166,0.43299
2,325.861,1.015152
3,328.553,1.145455
4,331.243,0.714286
5,333.93,0.456522
6,336.615,0.434426
7,339.297,0.56962
8,341.976,0.721519
9,344.653,0.633333
10,347.327,0.197917
11,349.998,0.584906
12,352.666,0.666667
13,355.331,0.802817
14,357.994,0.586667
15,360.653,0.628571
16,363.309,0.537037
17,365.962,0.506024
18,368.612,0.689189
19,371.259,0.597938
20,373.903,0.385965
21,376.543,0.912281
22,379.18,0.696629
23,381.813,0.440678
24,384.443,0.744444
25,387.07,0.474576
26,389.693,0.621622
27,392.313,0.826923
28,394.929,0.558442
29,397.541,0.134146
30,400.15,0.533333
31,402.755,0.336634
32,405.356,0.479592
33,407.954,0.610619
34,410.547,0.229508
35,413.137,0.598214
36,415.723,0.626582
37,418.305,0.639535
38,420.883,0.485356
39,423.457,0.682759
40,426.027,0.513453
41,428.593,0.584211
42,431.154,0.493182
43,433.712,0.533906
44,436.265,0.514356
45,438.814,0.522727
46,441.359,0.508141
47,443.9,0.511413
48,446.436,0.515654
49,448.967,0.518629
50,451.495,0.510515
51,454.018,0.520701
52,456.536,0.520501
53,459.05,0.522343
54,461.559,0.527761
55,464.064,0.532582
56,466.564,0.535672
57,469.06,0.53706
58,471.551,0.547584
59,474.037,0.539155
60,476.518,0.561105
61,478.995,0.55506
62,481.467,0.562054
63,483.934,0.554746
64,486.396,0.563769
65,488.853,0.577489
66,491.305,0.573628
67,493.753,0.576508
68,496.195,0.593365
69,498.632,0.594138
70,501.065,0.590481
71,503.492,0.596112
72,505.914,0.612048
73,508.332,0.609921
74,510.743,0.622407
75,513.15,0.628856
76,515.552,0.638677
77,517.948,0.643571
78,520.339,0.643932
79,522.725,0.651055
80,525.106,0.654604
81,527.481,0.661297
82,529.851,0.664915
83,532.216,0.666059
84,534.575,0.66428
85,536.929,0.670257
86,539.277,0.665336
87,541.62,0.667011
88,543.957,0.67381
89,546.289,0.672154
90,548.616,0.671001
91,550.936,0.684186
92,553.252,0.66989
93,555.561,0.676686
94,557.865,0.675563
95,560.164,0.673381
96,562.457,0.687997
97,564.744,0.680512
98,567.025,0.6851
99,569.301,0.69112
100,571.571,0.691124
101,573.835,0.689076
102,576.093,0.699499
103,578.346,0.697604
104,580.593,0.69594
105,582.834,0.698954
106,585.069,0.709076
107,587.299,0.703637
108,589.522,0.705867
109,591.74,0.70289
110,593.952,0.698526
111,596.158,0.700211
112,598.358,0.685172
113,600.551,0.688861
114,602.739,0.696147
115,604.922,0.683503
116,607.098,0.677462
117,609.268,0.678137
118,611.432,0.67652
119,613.59,0.681624
120,615.742,0.675883
121,617.887,0.674685
122,620.027,0.683116
123,622.161,0.674263
124,624.289,0.684841
125,626.41,0.681319
126,628.526,0.679615
127,630.635,0.677899
128,632.738,0.68348
129,634.835,0.68606
130,636.926,0.689785
131,639.011,0.681179
132,641.089,0.684389
133,643.162,0.685076
134,645.228,0.684709
135,647.288,0.683643
136,649.341,0.684481
137,651.389,0.691835
138,653.43,0.697091
139,655.465,0.693329
140,657.494,0.697199
141,659.516,0.691366
142,661.532,0.696996
143,663.542,0.697449
144,665.546,0.697753
145,667.543,0.694194
146,669.535,0.708287
147,671.519,0.708992
148,673.498,0.70224
149,675.47,0.692943
150,677.436,0.710407
151,679.396,0.716758
152,681.349,0.710561
153,683.296,0.708059
154,685.236,0.721765
155,687.171,0.705051
156,689.099,0.710256
157,691.02,0.708204
158,692.935,0.727845
159,694.844,0.730109
160,696.747,0.711507
161,698.643,0.718156
162,700.533,0.734326
163,702.416,0.728892
164,704.293,0.696057
165,706.164,0.74186
166,708.029,0.743061
167,709.887,0.737789
168,711.738,0.750471
169,713.584,0.744209
170,715.423,0.758134
171,717.255,0.712707
172,719.082,0.739186
173,720.901,0.750988
174,722.715,0.734501
175,724.522,0.691034
176,726.323,0.792605
177,728.117,0.649682
178,729.905,0.711504
179,731.687,0.673664
180,733.462,0.80083
181,735.232,0.773543
182,736.994,0.760465
183,738.751,0.588915
184,740.501,0.699266
185,742.244,0.708543
186,743.982,0.795796
187,745.713,0.710145
188,747.437,0.751592
189,749.156,0.717687
190,750.868,0.755319
191,752.573,0.766917
192,754.273,0.776471
193,755.966,0.788546
194,757.653,0.793578
195,759.333,0.607477
196,761.008,0.516746
197,762.676,0.885057
198,764.337,0.845638
199,765.993,0.758621
200,767.642,0.75625
201,769.285,0.658915
202,770.922,0.652482
203,772.552,0.704819
204,774.176,0.583893
205,775.795,0.769231
206,777.406,0.657895
207,779.012,0.804878
208,780.611,0.5
209,782.205,0.531746
210,783.792,0.642276
211,785.373,0.436364
212,786.947,0.5
213,788.516,0.658537
214,790.078,1.024691
215,791.635,0.857143
216,793.185,0.865672
217,794.729,1.22449
218,796.267,0.53271
219,797.799,1.184615
220,799.325,0.347222
221,800.844,0.6
222,802.358,0.505747
223,803.866,0.625
224,805.368,0.5
225,806.863,0.293578
226,808.353,0.636364
227,809.836,1.666667
228,811.314,0.627119
229,812.786,0.32967
230,814.252,0.507463
231,815.711,1.018182
232,817.165,1.101695
233,818.613,0.753086
234,820.055,0.626374
235,821.491,0.554217
236,822.922,0.511111
237,824.346,0.527778
238,825.765,0.902439
239,827.178,0.645833
240,828.585,0.939024
241,829.986,0.901235
242,831.381,0.890244
243,832.771,0.697917
244,834.155,0.411765
245,835.533,0.846154
246,836.906,0.7375
247,838.272,0.707317
248,839.633,1.029851
249,840.989,0.635294
250,842.339,0.477778
251,843.683,0.886598
252,845.021,0.375
253,846.354,0.525424
254,847.682,0.626506
255,849.004,1.348837
256,850.32,0.580645
257,851.631,0.590909
258,852.936,0.66129
259,854.236,0.597403
260,855.53,0.56
261,856.819,0.75
262,858.102,0.571429
263,859.38,0.166667
264,860.653,0.910714
265,861.92,0.277778
266,863.182,0.061224
267,864.439,0.702128
268,865.69,0.695652
269,866.936,0.27381
270,868.177,0.076923
271,869.412,0.846154
272,870.642,0.226804
273,871.867,0.615385
274,873.087,0.757143
275,874.302,1.263158
276,875.512,0.541667
277,876.716,0.932203
278,877.916,0.408451
279,879.11,0.4
280,880.299,-0.414634
281,881.483,0.083333
282,882.663,0.461538
283,883.837,0.291667
284,885.006,1.736842
285,886.17,1.051282
286,887.33,0.848485
287,888.484,0.428571
