,Wavelength[nm],Average
0,320.469,6.0
1,323.166,50.0
2,325.861,46.0
3,328.553,61.0
4,331.243,67.0
5,333.93,74.0
6,336.615,62.0
7,339.297,83.0
8,341.976,73.0
9,344.653,81.0
10,347.327,94.0
11,349.998,78.0
12,352.666,117.0
13,355.331,160.0
14,357.994,160.0
15,360.653,238.0
16,363.309,260.0
17,365.962,374.0
18,368.612,706.0
19,371.259,1265.0
20,373.903,2822.0
21,376.543,6619.0
22,379.18,14430.0
23,381.813,27407.0
24,384.443,44226.0
25,387.07,53744.0
26,389.693,54527.0
27,392.313,54585.0
28,394.929,54433.0
29,397.541,54394.0
30,400.15,47124.0
31,402.755,34975.0
32,405.356,25309.0
33,407.954,17639.0
34,410.547,11987.0
35,413.137,8405.0
36,415.723,5810.0
37,418.305,4142.0
38,420.883,2859.0
39,423.457,2150.0
40,426.027,1513.0
41,428.593,1206.0
42,431.154,969.0
43,433.712,786.0
44,436.265,704.0
45,438.814,624.0
46,441.359,565.0
47,443.9,554.0
48,446.436,514.0
49,448.967,484.0
50,451.495,471.0
51,454.018,482.0
52,456.536,485.0
53,459.05,532.0
54,461.559,495.0
55,464.064,469.0
56,466.564,481.0
57,469.06,530.0
58,471.551,560.0
59,474.037,548.0
60,476.518,536.0
61,478.995,527.0
62,481.467,502.0
63,483.934,511.0
64,486.396,495.0
65,488.853,563.0
66,491.305,497.0
67,493.753,540.0
68,496.195,509.0
69,498.632,551.0
70,501.065,455.0
71,503.492,491.0
72,505.914,429.0
73,508.332,468.0
74,510.743,462.0
75,513.15,400.0
76,515.552,464.0
77,517.948,448.0
78,520.339,422.0
79,522.725,409.0
80,525.106,366.0
81,527.481,375.0
82,529.851,416.0
83,532.216,404.0
84,534.575,395.0
85,536.929,380.0
86,539.277,383.0
87,541.62,323.0
88,543.957,319.0
89,546.289,329.0
90,548.616,303.0
91,550.936,292.0
92,553.252,278.0
93,555.561,273.0
94,557.865,267.0
95,560.164,270.0
96,562.457,226.0
97,564.744,260.0
98,567.025,197.0
99,569.301,215.0
100,571.571,215.0
101,573.835,192.0
102,576.093,212.0
103,578.346,189.0
104,580.593,169.0
105,582.834,181.0
106,585.069,137.0
107,587.299,162.0
108,589.522,170.0
109,591.74,130.0
110,593.952,139.0
111,596.158,106.0
112,598.358,131.0
113,600.551,93.0
114,602.739,126.0
115,604.922,131.0
116,607.098,131.0
117,609.268,94.0
118,611.432,92.0
119,613.59,54.0
120,615.742,84.0
121,617.887,84.0
122,620.027,95.0
123,622.161,76.0
124,624.289,79.0
125,626.41,70.0
126,628.526,98.0
127,630.635,66.0
128,632.738,53.0
129,634.835,92.0
130,636.926,58.0
131,639.011,63.0
132,641.089,60.0
133,643.162,50.0
134,645.228,25.0
135,647.288,33.0
136,649.341,64.0
137,651.389,52.0
138,653.43,29.0
139,655.465,34.0
140,657.494,37.0
141,659.516,52.0
142,661.532,23.0
143,663.542,27.0
144,665.546,42.0
145,667.543,53.0
146,669.535,12.0
147,671.519,9.0
148,673.498,39.0
149,675.47,8.0
150,677.436,40.0
151,679.396,45.0
152,681.349,29.0
153,683.296,19.0
154,685.236,12.0
155,687.171,26.0
156,689.099,32.0
157,691.02,34.0
158,692.935,54.0
159,694.844,51.0
160,696.747,14.0
161,698.643,12.0
162,700.533,18.0
163,702.416,32.0
164,704.293,25.0
165,706.164,31.0
166,708.029,28.0
167,709.887,10.0
168,711.738,34.0
169,713.584,14.0
170,715.423,-5.0
171,717.255,15.0
172,719.082,39.0
173,720.901,8.0
174,722.715,-6.0
175,724.522,5.0
176,726.323,17.0
177,728.117,-8.0
178,729.905,17.0
179,731.687,-1.0
180,733.462,5.0
181,735.232,-16.0
182,736.994,21.0
183,738.751,2.0
184,740.501,10.0
185,742.244,10.0
186,743.982,-18.0
187,745.713,15.0
188,747.437,16.0
189,749.156,15.0
190,750.868,14.0
191,752.573,-8.0
192,754.273,5.0
193,755.966,-2.0
194,757.653,41.0
195,759.333,-5.0
196,761.008,11.0
197,762.676,2.0
198,764.337,-4.0
199,765.993,19.0
200,767.642,-11.0
201,769.285,1.0
202,770.922,7.0
203,772.552,-13.0
204,774.176,-26.0
205,775.795,14.0
206,777.406,3.0
207,779.012,9.0
208,780.611,-6.0
209,782.205,-8.0
210,783.792,-7.0
211,785.373,3.0
212,786.947,-11.0
213,788.516,-35.0
214,790.078,1.0
215,791.635,7.0
216,793.185,4.0
217,794.729,-38.0
218,796.267,-16.0
219,797.799,9.0
220,799.325,-14.0
221,800.844,-4.0
222,802.358,17.0
223,803.866,-7.0
224,805.368,-7.0
225,806.863,8.0
226,808.353,13.0
227,809.836,16.0
228,811.314,22.0
229,812.786,5.0
230,814.252,11.0
231,815.711,-7.0
232,817.165,12.0
233,818.613,-1.0
234,820.055,-1.0
235,821.491,12.0
236,822.922,-23.0
237,824.346,-6.0
238,825.765,-3.0
239,827.178,-6.0
240,828.585,-19.0
241,829.986,-6.0
242,831.381,-18.0
243,832.771,-21.0
244,834.155,0.0
245,835.533,-15.0
246,836.906,-21.0
247,838.272,-10.0
248,839.633,10.0
249,840.989,14.0
250,842.339,-31.0
251,843.683,9.0
252,845.021,7.0
253,846.354,-23.0
254,847.682,-3.0
255,849.004,-22.0
256,850.32,7.0
257,851.631,4.0
258,852.936,1.0
259,854.236,-34.0
260,855.53,-16.0
261,856.819,-9.0
262,858.102,16.0
263,859.38,1.0
264,860.653,-9.0
265,861.92,12.0
266,863.182,9.0
267,864.439,11.0
268,865.69,13.0
269,866.936,-20.0
270,868.177,-1.0
271,869.412,-5.0
272,870.642,8.0
273,871.867,16.0
274,873.087,-17.0
275,874.302,-14.0
276,875.512,-12.0
277,876.716,-5.0
278,877.916,-25.0
279,879.11,9.0
280,880.299,-3.0
281,881.483,-5.0
282,882.663,-9.0
283,883.837,-18.0
284,885.006,-11.0
285,886.17,-3.0
286,887.33,-20.0
287,888.484,-9.0
