,Wavelength[nm],Average
0,320.469,6.0
1,323.166,69.0
2,325.861,70.0
3,328.553,74.0
4,331.243,91.0
5,333.93,73.0
6,336.615,68.0
7,339.297,107.0
8,341.976,80.0
9,344.653,81.0
10,347.327,96.0
11,349.998,132.0
12,352.666,143.0
13,355.331,141.0
14,357.994,168.0
15,360.653,204.0
16,363.309,319.0
17,365.962,411.0
18,368.612,692.0
19,371.259,1251.0
20,373.903,2905.0
21,376.543,6803.0
22,379.18,14838.0
23,381.813,27681.0
24,384.443,44925.0
25,387.07,54336.0
26,389.693,54567.0
27,392.313,54560.0
28,394.929,54427.0
29,397.541,54555.0
30,400.15,47668.0
31,402.755,35085.0
32,405.356,25145.0
33,407.954,17680.0
34,410.547,11835.0
35,413.137,8331.0
36,415.723,5968.0
37,418.305,4099.0
38,420.883,2838.0
39,423.457,2029.0
40,426.027,1545.0
41,428.593,1180.0
42,431.154,891.0
43,433.712,737.0
44,436.265,688.0
45,438.814,570.0
46,441.359,512.0
47,443.9,527.0
48,446.436,507.0
49,448.967,493.0
50,451.495,477.0
51,454.018,480.0
52,456.536,440.0
53,459.05,412.0
54,461.559,459.0
55,464.064,474.0
56,466.564,476.0
57,469.06,498.0
58,471.551,505.0
59,474.037,519.0
60,476.518,478.0
61,478.995,537.0
62,481.467,495.0
63,483.934,486.0
64,486.396,511.0
65,488.853,531.0
66,491.305,504.0
67,493.753,532.0
68,496.195,492.0
69,498.632,520.0
70,501.065,521.0
71,503.492,493.0
72,505.914,509.0
73,508.332,527.0
74,510.743,482.0
75,513.15,504.0
76,515.552,497.0
77,517.948,490.0
78,520.339,518.0
79,522.725,474.0
80,525.106,444.0
81,527.481,467.0
82,529.851,481.0
83,532.216,463.0
84,534.575,488.0
85,536.929,438.0
86,539.277,469.0
87,541.62,441.0
88,543.957,435.0
89,546.289,379.0
90,548.616,388.0
91,550.936,357.0
92,553.252,352.0
93,555.561,371.0
94,557.865,302.0
95,560.164,327.0
96,562.457,289.0
97,564.744,278.0
98,567.025,312.0
99,569.301,306.0
100,571.571,285.0
101,573.835,306.0
102,576.093,227.0
103,578.346,234.0
104,580.593,248.0
105,582.834,263.0
106,585.069,223.0
107,587.299,231.0
108,589.522,166.0
109,591.74,175.0
110,593.952,218.0
111,596.158,195.0
112,598.358,190.0
113,600.551,195.0
114,602.739,120.0
115,604.922,147.0
116,607.098,163.0
117,609.268,116.0
118,611.432,127.0
119,613.59,135.0
120,615.742,139.0
121,617.887,128.0
122,620.027,100.0
123,622.161,128.0
124,624.289,104.0
125,626.41,114.0
126,628.526,94.0
127,630.635,98.0
128,632.738,83.0
129,634.835,105.0
130,636.926,74.0
131,639.011,82.0
132,641.089,116.0
133,643.162,77.0
134,645.228,80.0
135,647.288,71.0
136,649.341,74.0
137,651.389,72.0
138,653.43,62.0
139,655.465,56.0
140,657.494,42.0
141,659.516,55.0
142,661.532,56.0
143,663.542,46.0
144,665.546,52.0
145,667.543,40.0
146,669.535,49.0
147,671.519,39.0
148,673.498,55.0
149,675.47,49.0
150,677.436,31.0
151,679.396,67.0
152,681.349,16.0
153,683.296,49.0
154,685.236,76.0
155,687.171,66.0
156,689.099,19.0
157,691.02,28.0
158,692.935,35.0
159,694.844,23.0
160,696.747,53.0
161,698.643,34.0
162,700.533,28.0
163,702.416,47.0
164,704.293,19.0
165,706.164,28.0
166,708.029,17.0
167,709.887,25.0
168,711.738,15.0
169,713.584,16.0
170,715.423,23.0
171,717.255,23.0
172,719.082,28.0
173,720.901,11.0
174,722.715,35.0
175,724.522,11.0
176,726.323,20.0
177,728.117,6.0
178,729.905,5.0
179,731.687,-1.0
180,733.462,21.0
181,735.232,11.0
182,736.994,59.0
183,738.751,25.0
184,740.501,9.0
185,742.244,25.0
186,743.982,-2.0
187,745.713,15.0
188,747.437,26.0
189,749.156,4.0
190,750.868,16.0
191,752.573,34.0
192,754.273,8.0
193,755.966,16.0
194,757.653,0.0
195,759.333,-16.0
196,761.008,16.0
197,762.676,19.0
198,764.337,24.0
199,765.993,8.0
200,767.642,-14.0
201,769.285,17.0
202,770.922,-14.0
203,772.552,6.0
204,774.176,25.0
205,775.795,22.0
206,777.406,-15.0
207,779.012,-8.0
208,780.611,35.0
209,782.205,7.0
210,783.792,-6.0
211,785.373,7.0
212,786.947,15.0
213,788.516,10.0
214,790.078,-10.0
215,791.635,16.0
216,793.185,-7.0
217,794.729,7.0
218,796.267,10.0
219,797.799,20.0
220,799.325,33.0
221,800.844,-3.0
222,802.358,3.0
223,803.866,35.0
224,805.368,8.0
225,806.863,36.0
226,808.353,7.0
227,809.836,31.0
228,811.314,-5.0
229,812.786,23.0
230,814.252,17.0
231,815.711,15.0
232,817.165,28.0
233,818.613,-13.0
234,820.055,14.0
235,821.491,-5.0
236,822.922,-4.0
237,824.346,22.0
238,825.765,4.0
239,827.178,25.0
240,828.585,-7.0
241,829.986,16.0
242,831.381,27.0
243,832.771,6.0
244,834.155,29.0
245,835.533,-6.0
246,836.906,-38.0
247,838.272,-8.0
248,839.633,17.0
249,840.989,12.0
250,842.339,34.0
251,843.683,4.0
252,845.021,-6.0
253,846.354,33.0
254,847.682,14.0
255,849.004,22.0
256,850.32,-6.0
257,851.631,17.0
258,852.936,22.0
259,854.236,-13.0
260,855.53,18.0
261,856.819,14.0
262,858.102,-3.0
263,859.38,19.0
264,860.653,6.0
265,861.92,22.0
266,863.182,4.0
267,864.439,-8.0
268,865.69,16.0
269,866.936,11.0
270,868.177,-16.0
271,869.412,-15.0
272,870.642,20.0
273,871.867,14.0
274,873.087,-6.0
275,874.302,4.0
276,875.512,15.0
277,876.716,14.0
278,877.916,2.0
279,879.11,8.0
280,880.299,4.0
281,881.483,1.0
282,882.663,41.0
283,883.837,15.0
284,885.006,17.0
285,886.17,15.0
286,887.33,-16.0
287,888.484,2.0
