,Wavelength[nm],Average
0,320.469,2.0
1,323.166,74.0
2,325.861,72.0
3,328.553,88.0
4,331.243,82.0
5,333.93,84.0
6,336.615,42.0
7,339.297,104.0
8,341.976,88.0
9,344.653,114.0
10,347.327,109.0
11,349.998,145.0
12,352.666,147.0
13,355.331,134.0
14,357.994,203.0
15,360.653,260.0
16,363.309,358.0
17,365.962,462.0
18,368.612,803.0
19,371.259,1570.0
20,373.903,3538.0
21,376.543,8297.0
22,379.18,17971.0
23,381.813,33689.0
24,384.443,51607.0
25,387.07,54320.0
26,389.693,54631.0
27,392.313,54602.0
28,394.929,54558.0
29,397.541,54668.0
30,400.15,53627.0
31,402.755,41459.0
32,405.356,30074.0
33,407.954,21288.0
34,410.547,14582.0
35,413.137,10014.0
36,415.723,7133.0
37,418.305,5079.0
38,420.883,3526.0
39,423.457,2516.0
40,426.027,1826.0
41,428.593,1407.0
42,431.154,1155.0
43,433.712,919.0
44,436.265,835.0
45,438.814,734.0
46,441.359,715.0
47,443.9,661.0
48,446.436,598.0
49,448.967,576.0
50,451.495,604.0
51,454.018,574.0
52,456.536,594.0
53,459.05,579.0
54,461.559,598.0
55,464.064,618.0
56,466.564,637.0
57,469.06,633.0
58,471.551,671.0
59,474.037,621.0
60,476.518,647.0
61,478.995,634.0
62,481.467,664.0
63,483.934,601.0
64,486.396,589.0
65,488.853,607.0
66,491.305,615.0
67,493.753,619.0
68,496.195,560.0
69,498.632,593.0
70,501.065,589.0
71,503.492,566.0
72,505.914,561.0
73,508.332,574.0
74,510.743,544.0
75,513.15,540.0
76,515.552,509.0
77,517.948,516.0
78,520.339,465.0
79,522.725,472.0
80,525.106,479.0
81,527.481,451.0
82,529.851,442.0
83,532.216,468.0
84,534.575,465.0
85,536.929,423.0
86,539.277,450.0
87,541.62,444.0
88,543.957,404.0
89,546.289,358.0
90,548.616,347.0
91,550.936,363.0
92,553.252,367.0
93,555.561,345.0
94,557.865,326.0
95,560.164,273.0
96,562.457,296.0
97,564.744,284.0
98,567.025,301.0
99,569.301,260.0
100,571.571,230.0
101,573.835,272.0
102,576.093,219.0
103,578.346,233.0
104,580.593,199.0
105,582.834,187.0
106,585.069,197.0
107,587.299,220.0
108,589.522,199.0
109,591.74,175.0
110,593.952,182.0
111,596.158,175.0
112,598.358,135.0
113,600.551,151.0
114,602.739,139.0
115,604.922,136.0
116,607.098,124.0
117,609.268,136.0
118,611.432,115.0
119,613.59,118.0
120,615.742,90.0
121,617.887,132.0
122,620.027,77.0
123,622.161,85.0
124,624.289,117.0
125,626.41,75.0
126,628.526,69.0
127,630.635,70.0
128,632.738,96.0
129,634.835,73.0
130,636.926,96.0
131,639.011,94.0
132,641.089,97.0
133,643.162,67.0
134,645.228,90.0
135,647.288,71.0
136,649.341,80.0
137,651.389,71.0
138,653.43,49.0
139,655.465,60.0
140,657.494,80.0
141,659.516,51.0
142,661.532,55.0
143,663.542,58.0
144,665.546,43.0
145,667.543,31.0
146,669.535,42.0
147,671.519,52.0
148,673.498,51.0
149,675.47,42.0
150,677.436,65.0
151,679.396,53.0
152,681.349,47.0
153,683.296,42.0
154,685.236,42.0
155,687.171,72.0
156,689.099,47.0
157,691.02,34.0
158,692.935,38.0
159,694.844,11.0
160,696.747,31.0
161,698.643,16.0
162,700.533,43.0
163,702.416,28.0
164,704.293,24.0
165,706.164,13.0
166,708.029,37.0
167,709.887,28.0
168,711.738,49.0
169,713.584,20.0
170,715.423,-2.0
171,717.255,22.0
172,719.082,36.0
173,720.901,38.0
174,722.715,54.0
175,724.522,19.0
176,726.323,5.0
177,728.117,15.0
178,729.905,27.0
179,731.687,33.0
180,733.462,4.0
181,735.232,31.0
182,736.994,35.0
183,738.751,12.0
184,740.501,37.0
185,742.244,14.0
186,743.982,19.0
187,745.713,-8.0
188,747.437,15.0
189,749.156,-1.0
190,750.868,19.0
191,752.573,-15.0
192,754.273,22.0
193,755.966,5.0
194,757.653,4.0
195,759.333,11.0
196,761.008,-18.0
197,762.676,49.0
198,764.337,32.0
199,765.993,17.0
200,767.642,10.0
201,769.285,14.0
202,770.922,34.0
203,772.552,-5.0
204,774.176,13.0
205,775.795,-5.0
206,777.406,31.0
207,779.012,13.0
208,780.611,-3.0
209,782.205,6.0
210,783.792,-3.0
211,785.373,14.0
212,786.947,-6.0
213,788.516,27.0
214,790.078,-5.0
215,791.635,-6.0
216,793.185,5.0
217,794.729,0.0
218,796.267,7.0
219,797.799,-2.0
220,799.325,2.0
221,800.844,-17.0
222,802.358,9.0
223,803.866,13.0
224,805.368,-23.0
225,806.863,2.0
226,808.353,3.0
227,809.836,28.0
228,811.314,-8.0
229,812.786,17.0
230,814.252,-2.0
231,815.711,18.0
232,817.165,2.0
233,818.613,5.0
234,820.055,1.0
235,821.491,26.0
236,822.922,19.0
237,824.346,10.0
238,825.765,24.0
239,827.178,27.0
240,828.585,7.0
241,829.986,15.0
242,831.381,23.0
243,832.771,31.0
244,834.155,37.0
245,835.533,8.0
246,836.906,33.0
247,838.272,34.0
248,839.633,-16.0
249,840.989,5.0
250,842.339,0.0
251,843.683,19.0
252,845.021,14.0
253,846.354,-4.0
254,847.682,-2.0
255,849.004,22.0
256,850.32,-26.0
257,851.631,14.0
258,852.936,19.0
259,854.236,4.0
260,855.53,-19.0
261,856.819,-6.0
262,858.102,5.0
263,859.38,20.0
264,860.653,4.0
265,861.92,-14.0
266,863.182,8.0
267,864.439,10.0
268,865.69,22.0
269,866.936,-19.0
270,868.177,17.0
271,869.412,15.0
272,870.642,9.0
273,871.867,23.0
274,873.087,-3.0
275,874.302,22.0
276,875.512,3.0
277,876.716,19.0
278,877.916,-5.0
279,879.11,18.0
280,880.299,5.0
281,881.483,6.0
282,882.663,28.0
283,883.837,9.0
284,885.006,12.0
285,886.17,-7.0
286,887.33,-8.0
287,888.484,16.0
