,Wavelength[nm],Average
0,320.469,28.0
1,323.166,109.0
2,325.861,104.0
3,328.553,99.0
4,331.243,107.0
5,333.93,77.0
6,336.615,94.0
7,339.297,115.0
8,341.976,154.0
9,344.653,164.0
10,347.327,145.0
11,349.998,162.0
12,352.666,268.0
13,355.331,228.0
14,357.994,304.0
15,360.653,335.0
16,363.309,508.0
17,365.962,792.0
18,368.612,1263.0
19,371.259,2425.0
20,373.903,5518.0
21,376.543,13192.0
22,379.18,27903.0
23,381.813,48789.0
24,384.443,54470.0
25,387.07,54433.0
26,389.693,54741.0
27,392.313,54657.0
28,394.929,54603.0
29,397.541,54699.0
30,400.15,54529.0
31,402.755,54350.0
32,405.356,45514.0
33,407.954,33144.0
34,410.547,22756.0
35,413.137,15648.0
36,415.723,11026.0
37,418.305,7649.0
38,420.883,5221.0
39,423.457,3797.0
40,426.027,2767.0
41,428.593,2066.0
42,431.154,1596.0
43,433.712,1352.0
44,436.265,1175.0
45,438.814,978.0
46,441.359,889.0
47,443.9,822.0
48,446.436,776.0
49,448.967,715.0
50,451.495,713.0
51,454.018,764.0
52,456.536,759.0
53,459.05,723.0
54,461.559,756.0
55,464.064,701.0
56,466.564,749.0
57,469.06,734.0
58,471.551,766.0
59,474.037,698.0
60,476.518,787.0
61,478.995,771.0
62,481.467,785.0
63,483.934,801.0
64,486.396,900.0
65,488.853,883.0
66,491.305,963.0
67,493.753,986.0
68,496.195,972.0
69,498.632,976.0
70,501.065,1071.0
71,503.492,1148.0
72,505.914,1168.0
73,508.332,1136.0
74,510.743,1113.0
75,513.15,1189.0
76,515.552,1201.0
77,517.948,1195.0
78,520.339,1164.0
79,522.725,1149.0
80,525.106,1223.0
81,527.481,1152.0
82,529.851,1177.0
83,532.216,1178.0
84,534.575,1125.0
85,536.929,1154.0
86,539.277,1198.0
87,541.62,1119.0
88,543.957,1115.0
89,546.289,1032.0
90,548.616,964.0
91,550.936,968.0
92,553.252,959.0
93,555.561,925.0
94,557.865,897.0
95,560.164,813.0
96,562.457,845.0
97,564.744,717.0
98,567.025,743.0
99,569.301,713.0
100,571.571,668.0
101,573.835,616.0
102,576.093,597.0
103,578.346,568.0
104,580.593,559.0
105,582.834,521.0
106,585.069,496.0
107,587.299,483.0
108,589.522,465.0
109,591.74,396.0
110,593.952,446.0
111,596.158,436.0
112,598.358,392.0
113,600.551,422.0
114,602.739,354.0
115,604.922,380.0
116,607.098,289.0
117,609.268,284.0
118,611.432,252.0
119,613.59,253.0
120,615.742,256.0
121,617.887,226.0
122,620.027,250.0
123,622.161,227.0
124,624.289,178.0
125,626.41,200.0
126,628.526,178.0
127,630.635,189.0
128,632.738,173.0
129,634.835,193.0
130,636.926,126.0
131,639.011,100.0
132,641.089,135.0
133,643.162,126.0
134,645.228,129.0
135,647.288,121.0
136,649.341,102.0
137,651.389,82.0
138,653.43,86.0
139,655.465,77.0
140,657.494,87.0
141,659.516,68.0
142,661.532,79.0
143,663.542,64.0
144,665.546,52.0
145,667.543,54.0
146,669.535,47.0
147,671.519,77.0
148,673.498,49.0
149,675.47,54.0
150,677.436,55.0
151,679.396,54.0
152,681.349,62.0
153,683.296,63.0
154,685.236,48.0
155,687.171,45.0
156,689.099,56.0
157,691.02,39.0
158,692.935,18.0
159,694.844,35.0
160,696.747,48.0
161,698.643,40.0
162,700.533,9.0
163,702.416,34.0
164,704.293,28.0
165,706.164,16.0
166,708.029,-10.0
167,709.887,0.0
168,711.738,20.0
169,713.584,-1.0
170,715.423,0.0
171,717.255,-14.0
172,719.082,-8.0
173,720.901,6.0
174,722.715,-5.0
175,724.522,5.0
176,726.323,-20.0
177,728.117,35.0
178,729.905,18.0
179,731.687,17.0
180,733.462,39.0
181,735.232,-12.0
182,736.994,4.0
183,738.751,-3.0
184,740.501,-10.0
185,742.244,10.0
186,743.982,31.0
187,745.713,-4.0
188,747.437,4.0
189,749.156,-43.0
190,750.868,-8.0
191,752.573,-12.0
192,754.273,7.0
193,755.966,2.0
194,757.653,-21.0
195,759.333,-57.0
196,761.008,-21.0
197,762.676,-31.0
198,764.337,7.0
199,765.993,5.0
200,767.642,22.0
201,769.285,-24.0
202,770.922,19.0
203,772.552,-8.0
204,774.176,-11.0
205,775.795,-27.0
206,777.406,-31.0
207,779.012,-18.0
208,780.611,-24.0
209,782.205,-10.0
210,783.792,-3.0
211,785.373,-34.0
212,786.947,-38.0
213,788.516,-19.0
214,790.078,-5.0
215,791.635,-8.0
216,793.185,-22.0
217,794.729,-22.0
218,796.267,-45.0
219,797.799,-4.0
220,799.325,1.0
221,800.844,-13.0
222,802.358,-13.0
223,803.866,-19.0
224,805.368,-35.0
225,806.863,-12.0
226,808.353,2.0
227,809.836,-16.0
228,811.314,-5.0
229,812.786,-5.0
230,814.252,-10.0
231,815.711,18.0
232,817.165,-27.0
233,818.613,-20.0
234,820.055,-31.0
235,821.491,-34.0
236,822.922,-7.0
237,824.346,17.0
238,825.765,-28.0
239,827.178,17.0
240,828.585,-10.0
241,829.986,-13.0
242,831.381,21.0
243,832.771,-2.0
244,834.155,12.0
245,835.533,6.0
246,836.906,-28.0
247,838.272,-43.0
248,839.633,-42.0
249,840.989,-2.0
250,842.339,-28.0
251,843.683,-36.0
252,845.021,-2.0
253,846.354,-29.0
254,847.682,-21.0
255,849.004,-36.0
256,850.32,-6.0
257,851.631,4.0
258,852.936,-7.0
259,854.236,-8.0
260,855.53,-8.0
261,856.819,8.0
262,858.102,-51.0
263,859.38,-12.0
264,860.653,-30.0
265,861.92,-30.0
266,863.182,8.0
267,864.439,-16.0
268,865.69,-16.0
269,866.936,-3.0
270,868.177,-12.0
271,869.412,-14.0
272,870.642,-41.0
273,871.867,-27.0
274,873.087,-9.0
275,874.302,-34.0
276,875.512,-1.0
277,876.716,-41.0
278,877.916,-19.0
279,879.11,-30.0
280,880.299,-11.0
281,881.483,-12.0
282,882.663,-31.0
283,883.837,-40.0
284,885.006,5.0
285,886.17,-48.0
286,887.33,-66.0
287,888.484,-15.0
