,Wavelength[nm],Average
0,320.469,9.0
1,323.166,51.0
2,325.861,74.0
3,328.553,61.0
4,331.243,59.0
5,333.93,78.0
6,336.615,85.0
7,339.297,46.0
8,341.976,99.0
9,344.653,97.0
10,347.327,122.0
11,349.998,102.0
12,352.666,142.0
13,355.331,131.0
14,357.994,127.0
15,360.653,211.0
16,363.309,257.0
17,365.962,374.0
18,368.612,622.0
19,371.259,1253.0
20,373.903,2746.0
21,376.543,6581.0
22,379.18,14264.0
23,381.813,27034.0
24,384.443,44533.0
25,387.07,54223.0
26,389.693,54489.0
27,392.313,54506.0
28,394.929,54365.0
29,397.541,54537.0
30,400.15,47873.0
31,402.755,35052.0
32,405.356,25381.0
33,407.954,17730.0
34,410.547,12101.0
35,413.137,8226.0
36,415.723,5914.0
37,418.305,4282.0
38,420.883,2902.0
39,423.457,2124.0
40,426.027,1558.0
41,428.593,1169.0
42,431.154,1001.0
43,433.712,789.0
44,436.265,650.0
45,438.814,626.0
46,441.359,522.0
47,443.9,559.0
48,446.436,477.0
49,448.967,502.0
50,451.495,469.0
51,454.018,447.0
52,456.536,479.0
53,459.05,483.0
54,461.559,461.0
55,464.064,487.0
56,466.564,502.0
57,469.06,524.0
58,471.551,484.0
59,474.037,503.0
60,476.518,460.0
61,478.995,486.0
62,481.467,485.0
63,483.934,552.0
64,486.396,515.0
65,488.853,497.0
66,491.305,507.0
67,493.753,511.0
68,496.195,516.0
69,498.632,555.0
70,501.065,509.0
71,503.492,495.0
72,505.914,534.0
73,508.332,493.0
74,510.743,467.0
75,513.15,530.0
76,515.552,544.0
77,517.948,456.0
78,520.339,461.0
79,522.725,493.0
80,525.106,460.0
81,527.481,476.0
82,529.851,454.0
83,532.216,481.0
84,534.575,422.0
85,536.929,442.0
86,539.277,415.0
87,541.62,439.0
88,543.957,373.0
89,546.289,432.0
90,548.616,365.0
91,550.936,368.0
92,553.252,342.0
93,555.561,357.0
94,557.865,356.0
95,560.164,308.0
96,562.457,257.0
97,564.744,298.0
98,567.025,258.0
99,569.301,268.0
100,571.571,289.0
101,573.835,245.0
102,576.093,229.0
103,578.346,238.0
104,580.593,201.0
105,582.834,213.0
106,585.069,254.0
107,587.299,191.0
108,589.522,181.0
109,591.74,164.0
110,593.952,194.0
111,596.158,145.0
112,598.358,184.0
113,600.551,137.0
114,602.739,141.0
115,604.922,121.0
116,607.098,148.0
117,609.268,140.0
118,611.432,132.0
119,613.59,83.0
120,615.742,102.0
121,617.887,65.0
122,620.027,124.0
123,622.161,103.0
124,624.289,96.0
125,626.41,78.0
126,628.526,91.0
127,630.635,93.0
128,632.738,72.0
129,634.835,100.0
130,636.926,77.0
131,639.011,75.0
132,641.089,123.0
133,643.162,64.0
134,645.228,107.0
135,647.288,62.0
136,649.341,48.0
137,651.389,58.0
138,653.43,70.0
139,655.465,59.0
140,657.494,45.0
141,659.516,59.0
142,661.532,52.0
143,663.542,22.0
144,665.546,33.0
145,667.543,31.0
146,669.535,49.0
147,671.519,29.0
148,673.498,21.0
149,675.47,62.0
150,677.436,35.0
151,679.396,21.0
152,681.349,35.0
153,683.296,40.0
154,685.236,35.0
155,687.171,10.0
156,689.099,26.0
157,691.02,25.0
158,692.935,41.0
159,694.844,-1.0
160,696.747,21.0
161,698.643,2.0
162,700.533,31.0
163,702.416,41.0
164,704.293,23.0
165,706.164,13.0
166,708.029,24.0
167,709.887,15.0
168,711.738,21.0
169,713.584,34.0
170,715.423,14.0
171,717.255,-5.0
172,719.082,0.0
173,720.901,13.0
174,722.715,13.0
175,724.522,10.0
176,726.323,34.0
177,728.117,28.0
178,729.905,47.0
179,731.687,8.0
180,733.462,-5.0
181,735.232,28.0
182,736.994,16.0
183,738.751,9.0
184,740.501,-5.0
185,742.244,17.0
186,743.982,12.0
187,745.713,11.0
188,747.437,4.0
189,749.156,-1.0
190,750.868,3.0
191,752.573,9.0
192,754.273,23.0
193,755.966,-7.0
194,757.653,-6.0
195,759.333,0.0
196,761.008,-5.0
197,762.676,-12.0
198,764.337,-10.0
199,765.993,8.0
200,767.642,7.0
201,769.285,17.0
202,770.922,16.0
203,772.552,5.0
204,774.176,25.0
205,775.795,-20.0
206,777.406,2.0
207,779.012,-7.0
208,780.611,21.0
209,782.205,22.0
210,783.792,13.0
211,785.373,6.0
212,786.947,14.0
213,788.516,-1.0
214,790.078,-3.0
215,791.635,-5.0
216,793.185,24.0
217,794.729,-9.0
218,796.267,-32.0
219,797.799,22.0
220,799.325,-10.0
221,800.844,-4.0
222,802.358,0.0
223,803.866,2.0
224,805.368,12.0
225,806.863,7.0
226,808.353,-10.0
227,809.836,-18.0
228,811.314,-10.0
229,812.786,-3.0
230,814.252,-2.0
231,815.711,-3.0
232,817.165,3.0
233,818.613,2.0
234,820.055,0.0
235,821.491,14.0
236,822.922,15.0
237,824.346,8.0
238,825.765,6.0
239,827.178,19.0
240,828.585,-8.0
241,829.986,17.0
242,831.381,2.0
243,832.771,-3.0
244,834.155,-25.0
245,835.533,-9.0
246,836.906,15.0
247,838.272,0.0
248,839.633,-1.0
249,840.989,-10.0
250,842.339,-14.0
251,843.683,10.0
252,845.021,15.0
253,846.354,0.0
254,847.682,16.0
255,849.004,1.0
256,850.32,5.0
257,851.631,-29.0
258,852.936,-5.0
259,854.236,-21.0
260,855.53,16.0
261,856.819,11.0
262,858.102,13.0
263,859.38,-6.0
264,860.653,16.0
265,861.92,-1.0
266,863.182,-19.0
267,864.439,-20.0
268,865.69,16.0
269,866.936,-1.0
270,868.177,-9.0
271,869.412,-24.0
272,870.642,8.0
273,871.867,-27.0
274,873.087,1.0
275,874.302,-1.0
276,875.512,-7.0
277,876.716,-52.0
278,877.916,-3.0
279,879.11,-18.0
280,880.299,17.0
281,881.483,19.0
282,882.663,-3.0
283,883.837,-10.0
284,885.006,-19.0
285,886.17,7.0
286,887.33,-5.0
287,888.484,-5.0
