,Wavelength[nm],Average
0,320.469,7.0
1,323.166,61.0
2,325.861,56.0
3,328.553,87.0
4,331.243,48.0
5,333.93,103.0
6,336.615,82.0
7,339.297,99.0
8,341.976,50.0
9,344.653,88.0
10,347.327,102.0
11,349.998,85.0
12,352.666,98.0
13,355.331,180.0
14,357.994,159.0
15,360.653,163.0
16,363.309,225.0
17,365.962,341.0
18,368.612,572.0
19,371.259,1080.0
20,373.903,2519.0
21,376.543,6036.0
22,379.18,13500.0
23,381.813,25653.0
24,384.443,42047.0
25,387.07,52534.0
26,389.693,54463.0
27,392.313,54513.0
28,394.929,54367.0
29,397.541,53209.0
30,400.15,45625.0
31,402.755,33338.0
32,405.356,24059.0
33,407.954,16729.0
34,410.547,11436.0
35,413.137,7886.0
36,415.723,5626.0
37,418.305,3933.0
38,420.883,2766.0
39,423.457,1962.0
40,426.027,1491.0
41,428.593,1133.0
42,431.154,857.0
43,433.712,704.0
44,436.265,625.0
45,438.814,522.0
46,441.359,447.0
47,443.9,478.0
48,446.436,453.0
49,448.967,460.0
50,451.495,418.0
51,454.018,412.0
52,456.536,389.0
53,459.05,481.0
54,461.559,453.0
55,464.064,461.0
56,466.564,437.0
57,469.06,430.0
58,471.551,468.0
59,474.037,436.0
60,476.518,448.0
61,478.995,430.0
62,481.467,445.0
63,483.934,437.0
64,486.396,409.0
65,488.853,444.0
66,491.305,419.0
67,493.753,431.0
68,496.195,418.0
69,498.632,444.0
70,501.065,422.0
71,503.492,403.0
72,505.914,380.0
73,508.332,453.0
74,510.743,353.0
75,513.15,382.0
76,515.552,397.0
77,517.948,358.0
78,520.339,356.0
79,522.725,357.0
80,525.106,371.0
81,527.481,335.0
82,529.851,324.0
83,532.216,310.0
84,534.575,295.0
85,536.929,328.0
86,539.277,309.0
87,541.62,287.0
88,543.957,295.0
89,546.289,275.0
90,548.616,301.0
91,550.936,282.0
92,553.252,251.0
93,555.561,245.0
94,557.865,249.0
95,560.164,247.0
96,562.457,195.0
97,564.744,198.0
98,567.025,227.0
99,569.301,177.0
100,571.571,174.0
101,573.835,189.0
102,576.093,165.0
103,578.346,204.0
104,580.593,178.0
105,582.834,138.0
106,585.069,184.0
107,587.299,183.0
108,589.522,130.0
109,591.74,128.0
110,593.952,150.0
111,596.158,154.0
112,598.358,110.0
113,600.551,136.0
114,602.739,118.0
115,604.922,62.0
116,607.098,92.0
117,609.268,110.0
118,611.432,109.0
119,613.59,113.0
120,615.742,87.0
121,617.887,114.0
122,620.027,97.0
123,622.161,89.0
124,624.289,82.0
125,626.41,84.0
126,628.526,74.0
127,630.635,90.0
128,632.738,76.0
129,634.835,51.0
130,636.926,93.0
131,639.011,57.0
132,641.089,61.0
133,643.162,58.0
134,645.228,78.0
135,647.288,48.0
136,649.341,63.0
137,651.389,72.0
138,653.43,57.0
139,655.465,58.0
140,657.494,58.0
141,659.516,42.0
142,661.532,46.0
143,663.542,46.0
144,665.546,63.0
145,667.543,41.0
146,669.535,51.0
147,671.519,50.0
148,673.498,36.0
149,675.47,39.0
150,677.436,68.0
151,679.396,24.0
152,681.349,18.0
153,683.296,34.0
154,685.236,54.0
155,687.171,27.0
156,689.099,39.0
157,691.02,18.0
158,692.935,38.0
159,694.844,41.0
160,696.747,34.0
161,698.643,39.0
162,700.533,18.0
163,702.416,32.0
164,704.293,37.0
165,706.164,42.0
166,708.029,-11.0
167,709.887,36.0
168,711.738,17.0
169,713.584,18.0
170,715.423,41.0
171,717.255,16.0
172,719.082,9.0
173,720.901,11.0
174,722.715,1.0
175,724.522,0.0
176,726.323,-1.0
177,728.117,35.0
178,729.905,3.0
179,731.687,10.0
180,733.462,41.0
181,735.232,5.0
182,736.994,16.0
183,738.751,-3.0
184,740.501,-8.0
185,742.244,-35.0
186,743.982,9.0
187,745.713,21.0
188,747.437,-7.0
189,749.156,4.0
190,750.868,33.0
191,752.573,-3.0
192,754.273,15.0
193,755.966,17.0
194,757.653,33.0
195,759.333,11.0
196,761.008,20.0
197,762.676,8.0
198,764.337,-2.0
199,765.993,15.0
200,767.642,17.0
201,769.285,26.0
202,770.922,31.0
203,772.552,8.0
204,774.176,-2.0
205,775.795,0.0
206,777.406,16.0
207,779.012,-8.0
208,780.611,-8.0
209,782.205,14.0
210,783.792,11.0
211,785.373,5.0
212,786.947,-13.0
213,788.516,8.0
214,790.078,5.0
215,791.635,30.0
216,793.185,-5.0
217,794.729,10.0
218,796.267,-17.0
219,797.799,8.0
220,799.325,9.0
221,800.844,-15.0
222,802.358,25.0
223,803.866,-12.0
224,805.368,28.0
225,806.863,22.0
226,808.353,12.0
227,809.836,-20.0
228,811.314,24.0
229,812.786,-1.0
230,814.252,7.0
231,815.711,16.0
232,817.165,-20.0
233,818.613,-4.0
234,820.055,34.0
235,821.491,2.0
236,822.922,8.0
237,824.346,15.0
238,825.765,35.0
239,827.178,26.0
240,828.585,-40.0
241,829.986,14.0
242,831.381,17.0
243,832.771,-18.0
244,834.155,31.0
245,835.533,21.0
246,836.906,-4.0
247,838.272,0.0
248,839.633,30.0
249,840.989,-21.0
250,842.339,12.0
251,843.683,16.0
252,845.021,-9.0
253,846.354,14.0
254,847.682,15.0
255,849.004,19.0
256,850.32,36.0
257,851.631,14.0
258,852.936,21.0
259,854.236,-6.0
260,855.53,11.0
261,856.819,2.0
262,858.102,0.0
263,859.38,2.0
264,860.653,20.0
265,861.92,-15.0
266,863.182,3.0
267,864.439,2.0
268,865.69,16.0
269,866.936,17.0
270,868.177,5.0
271,869.412,9.0
272,870.642,-4.0
273,871.867,-2.0
274,873.087,-18.0
275,874.302,13.0
276,875.512,5.0
277,876.716,19.0
278,877.916,8.0
279,879.11,-27.0
280,880.299,-19.0
281,881.483,-13.0
282,882.663,7.0
283,883.837,8.0
284,885.006,6.0
285,886.17,-12.0
286,887.33,16.0
287,888.484,9.0
