,Wavelength[nm],Average
0,320.469,-0.75
1,323.166,0.505155
2,325.861,0.969697
3,328.553,0.945455
4,331.243,0.174603
5,333.93,0.456522
6,336.615,0.434426
7,339.297,0.518987
8,341.976,0.835443
9,344.653,0.2
10,347.327,0.572917
11,349.998,0.471698
12,352.666,0.916667
13,355.331,0.802817
14,357.994,0.6
15,360.653,0.457143
16,363.309,0.833333
17,365.962,0.578313
18,368.612,0.743243
19,371.259,0.43299
20,373.903,1.070175
21,376.543,0.701754
22,379.18,0.47191
23,381.813,0.694915
24,384.443,0.266667
25,387.07,0.610169
26,389.693,0.608108
27,392.313,1.288462
28,394.929,0.597403
29,397.541,0.512195
30,400.15,0.722222
31,402.755,0.168317
32,405.356,0.44898
33,407.954,0.265487
34,410.547,0.467213
35,413.137,0.5625
36,415.723,0.639241
37,418.305,0.680233
38,420.883,0.648536
39,423.457,0.510345
40,426.027,0.455157
41,428.593,0.526316
42,431.154,0.463636
43,433.712,0.459227
44,436.265,0.481979
45,438.814,0.47028
46,441.359,0.481106
47,443.9,0.472222
48,446.436,0.475201
49,448.967,0.475066
50,451.495,0.470891
51,454.018,0.485723
52,456.536,0.481853
53,459.05,0.49298
54,461.559,0.492276
55,464.064,0.501236
56,466.564,0.503712
57,469.06,0.497752
58,471.551,0.50347
59,474.037,0.514145
60,476.518,0.523718
61,478.995,0.514322
62,481.467,0.528192
63,483.934,0.515063
64,486.396,0.528553
65,488.853,0.541327
66,491.305,0.537001
67,493.753,0.531308
68,496.195,0.545442
69,498.632,0.548352
70,501.065,0.55283
71,503.492,0.563409
72,505.914,0.56208
73,508.332,0.560684
74,510.743,0.57359
75,513.15,0.577362
76,515.552,0.582421
77,517.948,0.595559
78,520.339,0.599724
79,522.725,0.598917
80,525.106,0.603364
81,527.481,0.608649
82,529.851,0.606494
83,532.216,0.612495
84,534.575,0.605211
85,536.929,0.606308
86,539.277,0.607374
87,541.62,0.614266
88,543.957,0.609426
89,546.289,0.616722
90,548.616,0.60608
91,550.936,0.611709
92,553.252,0.619397
93,555.561,0.618146
94,557.865,0.622922
95,560.164,0.618664
96,562.457,0.62859
97,564.744,0.632194
98,567.025,0.640181
99,569.301,0.634416
100,571.571,0.641525
101,573.835,0.635697
102,576.093,0.647282
103,578.346,0.652903
104,580.593,0.655804
105,582.834,0.652387
106,585.069,0.65924
107,587.299,0.662666
108,589.522,0.660498
109,591.74,0.656533
110,593.952,0.657802
111,596.158,0.654325
112,598.358,0.642097
113,600.551,0.64949
114,602.739,0.648933
115,604.922,0.63291
116,607.098,0.62843
117,609.268,0.629911
118,611.432,0.623814
119,613.59,0.623608
120,615.742,0.620583
121,617.887,0.625731
122,620.027,0.622379
123,622.161,0.621577
124,624.289,0.629067
125,626.41,0.62178
126,628.526,0.627302
127,630.635,0.626697
128,632.738,0.626869
129,634.835,0.618546
130,636.926,0.632278
131,639.011,0.621066
132,641.089,0.628261
133,643.162,0.621456
134,645.228,0.62845
135,647.288,0.625122
136,649.341,0.624229
137,651.389,0.631486
138,653.43,0.638192
139,655.465,0.647902
140,657.494,0.65293
141,659.516,0.635373
142,661.532,0.64629
143,663.542,0.649786
144,665.546,0.652018
145,667.543,0.644938
146,669.535,0.653043
147,671.519,0.651168
148,673.498,0.642839
149,675.47,0.659654
150,677.436,0.639706
151,679.396,0.658774
152,681.349,0.658735
153,683.296,0.671394
154,685.236,0.653328
155,687.171,0.68
156,689.099,0.661111
157,691.02,0.647007
158,692.935,0.664407
159,694.844,0.705148
160,696.747,0.647218
161,698.643,0.649568
162,700.533,0.681564
163,702.416,0.67876
164,704.293,0.711828
165,706.164,0.70155
166,708.029,0.648692
167,709.887,0.689803
168,711.738,0.724105
169,713.584,0.67573
170,715.423,0.651844
171,717.255,0.671823
172,719.082,0.706107
173,720.901,0.720685
174,722.715,0.661725
175,724.522,0.675862
176,726.323,0.702572
177,728.117,0.710191
178,729.905,0.679646
179,731.687,0.620229
180,733.462,0.759336
181,735.232,0.686099
182,736.994,0.634884
183,738.751,0.616628
184,740.501,0.701711
185,742.244,0.613065
186,743.982,0.813814
187,745.713,0.57971
188,747.437,0.621019
189,749.156,0.57483
190,750.868,0.702128
191,752.573,0.733083
192,754.273,0.635294
193,755.966,0.735683
194,757.653,0.743119
195,759.333,0.672897
196,761.008,0.631579
197,762.676,0.781609
198,764.337,0.912752
199,765.993,0.744828
200,767.642,0.63125
201,769.285,0.581395
202,770.922,0.70922
203,772.552,0.36747
204,774.176,0.516779
205,775.795,0.692308
206,777.406,0.868421
207,779.012,0.479675
208,780.611,0.621429
209,782.205,0.436508
210,783.792,0.642276
211,785.373,0.727273
212,786.947,0.865854
213,788.516,0.780488
214,790.078,0.691358
215,791.635,1.157143
216,793.185,0.686567
217,794.729,1.285714
218,796.267,0.82243
219,797.799,0.553846
220,799.325,0.763889
221,800.844,0.613333
222,802.358,0.471264
223,803.866,0.4875
224,805.368,1.203704
225,806.863,0.495413
226,808.353,0.636364
227,809.836,1.545455
228,811.314,0.457627
229,812.786,0.703297
230,814.252,0.61194
231,815.711,1.109091
232,817.165,0.610169
233,818.613,0.703704
234,820.055,0.230769
235,821.491,0.493976
236,822.922,0.555556
237,824.346,0.680556
238,825.765,0.390244
239,827.178,1.270833
240,828.585,0.841463
241,829.986,0.271605
242,831.381,0.841463
243,832.771,0.729167
244,834.155,0.717647
245,835.533,1.217949
246,836.906,0.9625
247,838.272,0.926829
248,839.633,0.910448
249,840.989,0.752941
250,842.339,0.5
251,843.683,0.515464
252,845.021,0.859375
253,846.354,0.745763
254,847.682,0.674699
255,849.004,0.488372
256,850.32,0.435484
257,851.631,1.287879
258,852.936,1.129032
259,854.236,0.779221
260,855.53,0.68
261,856.819,0.816667
262,858.102,0.285714
263,859.38,0.633333
264,860.653,1.089286
265,861.92,0.255556
266,863.182,0.857143
267,864.439,0.808511
268,865.69,0.681159
269,866.936,0.595238
270,868.177,1.205128
271,869.412,0.507692
272,870.642,0.412371
273,871.867,0.692308
274,873.087,0.557143
275,874.302,0.973684
276,875.512,0.458333
277,876.716,0.694915
278,877.916,0.380282
279,879.11,0.3875
280,880.299,1.292683
281,881.483,0.375
282,882.663,0.371795
283,883.837,1.208333
284,885.006,2.105263
285,886.17,1.384615
286,887.33,0.742424
287,888.484,0.157143
