,Wavelength[nm],Average
0,320.469,11.0
1,323.166,68.0
2,325.861,57.0
3,328.553,69.0
4,331.243,90.0
5,333.93,78.0
6,336.615,94.0
7,339.297,106.0
8,341.976,85.0
9,344.653,71.0
10,347.327,115.0
11,349.998,133.0
12,352.666,118.0
13,355.331,140.0
14,357.994,168.0
15,360.653,219.0
16,363.309,267.0
17,365.962,394.0
18,368.612,654.0
19,371.259,1268.0
20,373.903,2857.0
21,376.543,6778.0
22,379.18,14814.0
23,381.813,27815.0
24,384.443,44917.0
25,387.07,54198.0
26,389.693,54615.0
27,392.313,54593.0
28,394.929,54482.0
29,397.541,54552.0
30,400.15,46970.0
31,402.755,34420.0
32,405.356,24815.0
33,407.954,17461.0
34,410.547,11825.0
35,413.137,8319.0
36,415.723,5919.0
37,418.305,4204.0
38,420.883,2854.0
39,423.457,2103.0
40,426.027,1597.0
41,428.593,1226.0
42,431.154,950.0
43,433.712,798.0
44,436.265,684.0
45,438.814,617.0
46,441.359,560.0
47,443.9,560.0
48,446.436,509.0
49,448.967,481.0
50,451.495,511.0
51,454.018,499.0
52,456.536,519.0
53,459.05,491.0
54,461.559,526.0
55,464.064,536.0
56,466.564,531.0
57,469.06,559.0
58,471.551,550.0
59,474.037,544.0
60,476.518,523.0
61,478.995,576.0
62,481.467,508.0
63,483.934,507.0
64,486.396,520.0
65,488.853,570.0
66,491.305,475.0
67,493.753,526.0
68,496.195,525.0
69,498.632,498.0
70,501.065,470.0
71,503.492,452.0
72,505.914,479.0
73,508.332,469.0
74,510.743,468.0
75,513.15,413.0
76,515.552,449.0
77,517.948,444.0
78,520.339,428.0
79,522.725,416.0
80,525.106,425.0
81,527.481,429.0
82,529.851,383.0
83,532.216,383.0
84,534.575,372.0
85,536.929,397.0
86,539.277,418.0
87,541.62,389.0
88,543.957,359.0
89,546.289,347.0
90,548.616,347.0
91,550.936,313.0
92,553.252,304.0
93,555.561,282.0
94,557.865,265.0
95,560.164,256.0
96,562.457,269.0
97,564.744,254.0
98,567.025,279.0
99,569.301,216.0
100,571.571,228.0
101,573.835,221.0
102,576.093,207.0
103,578.346,194.0
104,580.593,215.0
105,582.834,193.0
106,585.069,188.0
107,587.299,159.0
108,589.522,155.0
109,591.74,163.0
110,593.952,159.0
111,596.158,141.0
112,598.358,138.0
113,600.551,136.0
114,602.739,114.0
115,604.922,95.0
116,607.098,85.0
117,609.268,105.0
118,611.432,114.0
119,613.59,101.0
120,615.742,98.0
121,617.887,105.0
122,620.027,73.0
123,622.161,85.0
124,624.289,80.0
125,626.41,61.0
126,628.526,72.0
127,630.635,64.0
128,632.738,54.0
129,634.835,43.0
130,636.926,110.0
131,639.011,97.0
132,641.089,63.0
133,643.162,85.0
134,645.228,84.0
135,647.288,84.0
136,649.341,73.0
137,651.389,56.0
138,653.43,47.0
139,655.465,53.0
140,657.494,54.0
141,659.516,24.0
142,661.532,45.0
143,663.542,50.0
144,665.546,45.0
145,667.543,21.0
146,669.535,33.0
147,671.519,53.0
148,673.498,61.0
149,675.47,52.0
150,677.436,21.0
151,679.396,23.0
152,681.349,50.0
153,683.296,34.0
154,685.236,45.0
155,687.171,34.0
156,689.099,26.0
157,691.02,55.0
158,692.935,28.0
159,694.844,51.0
160,696.747,34.0
161,698.643,33.0
162,700.533,-4.0
163,702.416,16.0
164,704.293,33.0
165,706.164,27.0
166,708.029,-16.0
167,709.887,24.0
168,711.738,10.0
169,713.584,30.0
170,715.423,15.0
171,717.255,12.0
172,719.082,21.0
173,720.901,-11.0
174,722.715,-11.0
175,724.522,19.0
176,726.323,-5.0
177,728.117,34.0
178,729.905,3.0
179,731.687,2.0
180,733.462,23.0
181,735.232,48.0
182,736.994,1.0
183,738.751,11.0
184,740.501,0.0
185,742.244,3.0
186,743.982,4.0
187,745.713,19.0
188,747.437,23.0
189,749.156,17.0
190,750.868,27.0
191,752.573,-9.0
192,754.273,24.0
193,755.966,27.0
194,757.653,19.0
195,759.333,1.0
196,761.008,-7.0
197,762.676,46.0
198,764.337,8.0
199,765.993,8.0
200,767.642,18.0
201,769.285,5.0
202,770.922,-10.0
203,772.552,10.0
204,774.176,20.0
205,775.795,27.0
206,777.406,10.0
207,779.012,3.0
208,780.611,18.0
209,782.205,-1.0
210,783.792,20.0
211,785.373,0.0
212,786.947,4.0
213,788.516,32.0
214,790.078,17.0
215,791.635,21.0
216,793.185,-8.0
217,794.729,14.0
218,796.267,1.0
219,797.799,-13.0
220,799.325,44.0
221,800.844,30.0
222,802.358,-5.0
223,803.866,3.0
224,805.368,9.0
225,806.863,26.0
226,808.353,-4.0
227,809.836,9.0
228,811.314,25.0
229,812.786,14.0
230,814.252,8.0
231,815.711,14.0
232,817.165,19.0
233,818.613,18.0
234,820.055,-5.0
235,821.491,24.0
236,822.922,-6.0
237,824.346,15.0
238,825.765,7.0
239,827.178,7.0
240,828.585,-20.0
241,829.986,0.0
242,831.381,-5.0
243,832.771,4.0
244,834.155,13.0
245,835.533,1.0
246,836.906,10.0
247,838.272,-2.0
248,839.633,17.0
249,840.989,34.0
250,842.339,8.0
251,843.683,4.0
252,845.021,-2.0
253,846.354,28.0
254,847.682,-8.0
255,849.004,17.0
256,850.32,16.0
257,851.631,8.0
258,852.936,-6.0
259,854.236,13.0
260,855.53,-9.0
261,856.819,11.0
262,858.102,8.0
263,859.38,9.0
264,860.653,42.0
265,861.92,6.0
266,863.182,-8.0
267,864.439,-2.0
268,865.69,-24.0
269,866.936,10.0
270,868.177,-3.0
271,869.412,1.0
272,870.642,-12.0
273,871.867,-7.0
274,873.087,-17.0
275,874.302,27.0
276,875.512,-11.0
277,876.716,-6.0
278,877.916,1.0
279,879.11,-13.0
280,880.299,-2.0
281,881.483,9.0
282,882.663,15.0
283,883.837,-7.0
284,885.006,-1.0
285,886.17,15.0
286,887.33,-5.0
287,888.484,-19.0
