,Wavelength[nm],Average
0,320.469,10.0
1,323.166,108.0
2,325.861,94.0
3,328.553,93.0
4,331.243,87.0
5,333.93,155.0
6,336.615,147.0
7,339.297,156.0
8,341.976,121.0
9,344.653,165.0
10,347.327,180.0
11,349.998,209.0
12,352.666,203.0
13,355.331,261.0
14,357.994,282.0
15,360.653,358.0
16,363.309,484.0
17,365.962,697.0
18,368.612,1172.0
19,371.259,2151.0
20,373.903,4678.0
21,376.543,11124.0
22,379.18,23431.0
23,381.813,42521.0
24,384.443,54555.0
25,387.07,54561.0
26,389.693,54788.0
27,392.313,54675.0
28,394.929,54600.0
29,397.541,54730.0
30,400.15,54593.0
31,402.755,51062.0
32,405.356,39400.0
33,407.954,28104.0
34,410.547,19068.0
35,413.137,13172.0
36,415.723,9158.0
37,418.305,6482.0
38,420.883,4508.0
39,423.457,3186.0
40,426.027,2272.0
41,428.593,1775.0
42,431.154,1418.0
43,433.712,1135.0
44,436.265,968.0
45,438.814,913.0
46,441.359,773.0
47,443.9,779.0
48,446.436,716.0
49,448.967,723.0
50,451.495,680.0
51,454.018,673.0
52,456.536,646.0
53,459.05,645.0
54,461.559,671.0
55,464.064,653.0
56,466.564,696.0
57,469.06,645.0
58,471.551,663.0
59,474.037,682.0
60,476.518,733.0
61,478.995,726.0
62,481.467,713.0
63,483.934,729.0
64,486.396,728.0
65,488.853,796.0
66,491.305,803.0
67,493.753,828.0
68,496.195,879.0
69,498.632,933.0
70,501.065,930.0
71,503.492,927.0
72,505.914,957.0
73,508.332,941.0
74,510.743,1035.0
75,513.15,1026.0
76,515.552,1008.0
77,517.948,992.0
78,520.339,1060.0
79,522.725,1023.0
80,525.106,1015.0
81,527.481,1016.0
82,529.851,1045.0
83,532.216,1034.0
84,534.575,1042.0
85,536.929,962.0
86,539.277,1042.0
87,541.62,961.0
88,543.957,936.0
89,546.289,879.0
90,548.616,889.0
91,550.936,799.0
92,553.252,785.0
93,555.561,749.0
94,557.865,755.0
95,560.164,709.0
96,562.457,698.0
97,564.744,614.0
98,567.025,664.0
99,569.301,626.0
100,571.571,597.0
101,573.835,580.0
102,576.093,565.0
103,578.346,547.0
104,580.593,512.0
105,582.834,482.0
106,585.069,482.0
107,587.299,439.0
108,589.522,402.0
109,591.74,386.0
110,593.952,363.0
111,596.158,336.0
112,598.358,365.0
113,600.551,284.0
114,602.739,314.0
115,604.922,297.0
116,607.098,237.0
117,609.268,281.0
118,611.432,219.0
119,613.59,217.0
120,615.742,225.0
121,617.887,203.0
122,620.027,244.0
123,622.161,208.0
124,624.289,209.0
125,626.41,181.0
126,628.526,188.0
127,630.635,141.0
128,632.738,142.0
129,634.835,157.0
130,636.926,140.0
131,639.011,118.0
132,641.089,130.0
133,643.162,108.0
134,645.228,113.0
135,647.288,112.0
136,649.341,91.0
137,651.389,89.0
138,653.43,81.0
139,655.465,111.0
140,657.494,68.0
141,659.516,71.0
142,661.532,68.0
143,663.542,81.0
144,665.546,71.0
145,667.543,48.0
146,669.535,65.0
147,671.519,39.0
148,673.498,67.0
149,675.47,59.0
150,677.436,48.0
151,679.396,73.0
152,681.349,61.0
153,683.296,70.0
154,685.236,18.0
155,687.171,43.0
156,689.099,25.0
157,691.02,42.0
158,692.935,54.0
159,694.844,34.0
160,696.747,38.0
161,698.643,-16.0
162,700.533,28.0
163,702.416,37.0
164,704.293,8.0
165,706.164,46.0
166,708.029,25.0
167,709.887,29.0
168,711.738,11.0
169,713.584,29.0
170,715.423,68.0
171,717.255,24.0
172,719.082,10.0
173,720.901,35.0
174,722.715,-11.0
175,724.522,35.0
176,726.323,13.0
177,728.117,21.0
178,729.905,11.0
179,731.687,14.0
180,733.462,24.0
181,735.232,-22.0
182,736.994,-34.0
183,738.751,-28.0
184,740.501,25.0
185,742.244,-15.0
186,743.982,8.0
187,745.713,54.0
188,747.437,18.0
189,749.156,10.0
190,750.868,8.0
191,752.573,-13.0
192,754.273,-26.0
193,755.966,9.0
194,757.653,9.0
195,759.333,23.0
196,761.008,19.0
197,762.676,-2.0
198,764.337,0.0
199,765.993,-3.0
200,767.642,10.0
201,769.285,-14.0
202,770.922,-8.0
203,772.552,5.0
204,774.176,-28.0
205,775.795,-15.0
206,777.406,5.0
207,779.012,6.0
208,780.611,4.0
209,782.205,13.0
210,783.792,0.0
211,785.373,-4.0
212,786.947,-8.0
213,788.516,27.0
214,790.078,2.0
215,791.635,-16.0
216,793.185,-7.0
217,794.729,-2.0
218,796.267,-15.0
219,797.799,-16.0
220,799.325,10.0
221,800.844,5.0
222,802.358,13.0
223,803.866,-8.0
224,805.368,-13.0
225,806.863,13.0
226,808.353,28.0
227,809.836,-17.0
228,811.314,-3.0
229,812.786,-24.0
230,814.252,-11.0
231,815.711,37.0
232,817.165,-6.0
233,818.613,10.0
234,820.055,8.0
235,821.491,-25.0
236,822.922,-28.0
237,824.346,7.0
238,825.765,34.0
239,827.178,-26.0
240,828.585,-26.0
241,829.986,12.0
242,831.381,6.0
243,832.771,-20.0
244,834.155,-5.0
245,835.533,7.0
246,836.906,16.0
247,838.272,-1.0
248,839.633,23.0
249,840.989,-3.0
250,842.339,-2.0
251,843.683,12.0
252,845.021,-10.0
253,846.354,11.0
254,847.682,-12.0
255,849.004,-18.0
256,850.32,-1.0
257,851.631,35.0
258,852.936,7.0
259,854.236,-2.0
260,855.53,5.0
261,856.819,-46.0
262,858.102,3.0
263,859.38,7.0
264,860.653,1.0
265,861.92,-11.0
266,863.182,-20.0
267,864.439,-3.0
268,865.69,19.0
269,866.936,11.0
270,868.177,0.0
271,869.412,-13.0
272,870.642,-2.0
273,871.867,-19.0
274,873.087,-14.0
275,874.302,-16.0
276,875.512,-28.0
277,876.716,-20.0
278,877.916,13.0
279,879.11,-13.0
280,880.299,-10.0
281,881.483,-5.0
282,882.663,10.0
283,883.837,-3.0
284,885.006,11.0
285,886.17,-4.0
286,887.33,8.0
287,888.484,-27.0
