,Wavelength[nm],Average
0,320.469,2.0
1,323.166,75.0
2,325.861,75.0
3,328.553,80.0
4,331.243,93.0
5,333.93,118.0
6,336.615,92.0
7,339.297,95.0
8,341.976,118.0
9,344.653,127.0
10,347.327,144.0
11,349.998,134.0
12,352.666,170.0
13,355.331,147.0
14,357.994,184.0
15,360.653,278.0
16,363.309,334.0
17,365.962,524.0
18,368.612,842.0
19,371.259,1660.0
20,373.903,3834.0
21,376.543,9231.0
22,379.18,20051.0
23,381.813,36884.0
24,384.443,53837.0
25,387.07,54338.0
26,389.693,54568.0
27,392.313,54598.0
28,394.929,54449.0
29,397.541,54551.0
30,400.15,54532.0
31,402.755,44558.0
32,405.356,32944.0
33,407.954,23079.0
34,410.547,15864.0
35,413.137,11024.0
36,415.723,7774.0
37,418.305,5513.0
38,420.883,3824.0
39,423.457,2766.0
40,426.027,2054.0
41,428.593,1571.0
42,431.154,1283.0
43,433.712,1057.0
44,436.265,868.0
45,438.814,792.0
46,441.359,762.0
47,443.9,680.0
48,446.436,638.0
49,448.967,613.0
50,451.495,653.0
51,454.018,620.0
52,456.536,647.0
53,459.05,591.0
54,461.559,599.0
55,464.064,624.0
56,466.564,658.0
57,469.06,666.0
58,471.551,656.0
59,474.037,621.0
60,476.518,661.0
61,478.995,651.0
62,481.467,694.0
63,483.934,682.0
64,486.396,697.0
65,488.853,677.0
66,491.305,716.0
67,493.753,695.0
68,496.195,678.0
69,498.632,695.0
70,501.065,682.0
71,503.492,707.0
72,505.914,708.0
73,508.332,719.0
74,510.743,685.0
75,513.15,701.0
76,515.552,694.0
77,517.948,682.0
78,520.339,648.0
79,522.725,617.0
80,525.106,643.0
81,527.481,615.0
82,529.851,658.0
83,532.216,596.0
84,534.575,627.0
85,536.929,626.0
86,539.277,588.0
87,541.62,585.0
88,543.957,561.0
89,546.289,532.0
90,548.616,508.0
91,550.936,476.0
92,553.252,471.0
93,555.561,465.0
94,557.865,435.0
95,560.164,450.0
96,562.457,420.0
97,564.744,383.0
98,567.025,324.0
99,569.301,365.0
100,571.571,335.0
101,573.835,346.0
102,576.093,291.0
103,578.346,295.0
104,580.593,271.0
105,582.834,264.0
106,585.069,236.0
107,587.299,284.0
108,589.522,274.0
109,591.74,234.0
110,593.952,228.0
111,596.158,194.0
112,598.358,175.0
113,600.551,197.0
114,602.739,189.0
115,604.922,168.0
116,607.098,160.0
117,609.268,148.0
118,611.432,142.0
119,613.59,158.0
120,615.742,147.0
121,617.887,158.0
122,620.027,131.0
123,622.161,121.0
124,624.289,97.0
125,626.41,135.0
126,628.526,115.0
127,630.635,109.0
128,632.738,124.0
129,634.835,91.0
130,636.926,110.0
131,639.011,112.0
132,641.089,96.0
133,643.162,113.0
134,645.228,99.0
135,647.288,109.0
136,649.341,78.0
137,651.389,87.0
138,653.43,91.0
139,655.465,84.0
140,657.494,79.0
141,659.516,62.0
142,661.532,90.0
143,663.542,83.0
144,665.546,55.0
145,667.543,50.0
146,669.535,66.0
147,671.519,68.0
148,673.498,55.0
149,675.47,38.0
150,677.436,23.0
151,679.396,44.0
152,681.349,41.0
153,683.296,82.0
154,685.236,42.0
155,687.171,34.0
156,689.099,56.0
157,691.02,61.0
158,692.935,12.0
159,694.844,73.0
160,696.747,24.0
161,698.643,41.0
162,700.533,19.0
163,702.416,49.0
164,704.293,36.0
165,706.164,56.0
166,708.029,32.0
167,709.887,34.0
168,711.738,33.0
169,713.584,33.0
170,715.423,10.0
171,717.255,23.0
172,719.082,38.0
173,720.901,61.0
174,722.715,61.0
175,724.522,42.0
176,726.323,36.0
177,728.117,-13.0
178,729.905,22.0
179,731.687,25.0
180,733.462,52.0
181,735.232,20.0
182,736.994,26.0
183,738.751,32.0
184,740.501,31.0
185,742.244,27.0
186,743.982,29.0
187,745.713,21.0
188,747.437,40.0
189,749.156,15.0
190,750.868,35.0
191,752.573,1.0
192,754.273,22.0
193,755.966,19.0
194,757.653,3.0
195,759.333,28.0
196,761.008,4.0
197,762.676,-1.0
198,764.337,14.0
199,765.993,33.0
200,767.642,19.0
201,769.285,-4.0
202,770.922,28.0
203,772.552,23.0
204,774.176,14.0
205,775.795,24.0
206,777.406,16.0
207,779.012,17.0
208,780.611,14.0
209,782.205,2.0
210,783.792,28.0
211,785.373,-2.0
212,786.947,3.0
213,788.516,24.0
214,790.078,15.0
215,791.635,31.0
216,793.185,23.0
217,794.729,15.0
218,796.267,0.0
219,797.799,13.0
220,799.325,33.0
221,800.844,12.0
222,802.358,-2.0
223,803.866,-2.0
224,805.368,7.0
225,806.863,18.0
226,808.353,14.0
227,809.836,30.0
228,811.314,26.0
229,812.786,22.0
230,814.252,11.0
231,815.711,0.0
232,817.165,10.0
233,818.613,-5.0
234,820.055,-22.0
235,821.491,25.0
236,822.922,17.0
237,824.346,-8.0
238,825.765,23.0
239,827.178,16.0
240,828.585,20.0
241,829.986,26.0
242,831.381,9.0
243,832.771,24.0
244,834.155,34.0
245,835.533,16.0
246,836.906,-4.0
247,838.272,11.0
248,839.633,24.0
249,840.989,26.0
250,842.339,5.0
251,843.683,6.0
252,845.021,33.0
253,846.354,5.0
254,847.682,-1.0
255,849.004,23.0
256,850.32,-12.0
257,851.631,-5.0
258,852.936,19.0
259,854.236,-1.0
260,855.53,19.0
261,856.819,18.0
262,858.102,3.0
263,859.38,10.0
264,860.653,17.0
265,861.92,-37.0
266,863.182,0.0
267,864.439,20.0
268,865.69,10.0
269,866.936,29.0
270,868.177,36.0
271,869.412,13.0
272,870.642,25.0
273,871.867,24.0
274,873.087,-9.0
275,874.302,10.0
276,875.512,3.0
277,876.716,10.0
278,877.916,13.0
279,879.11,14.0
280,880.299,-5.0
281,881.483,1.0
282,882.663,10.0
283,883.837,7.0
284,885.006,13.0
285,886.17,-22.0
286,887.33,15.0
287,888.484,1.0
