,Wavelength[nm],Average
0,320.469,2.0
1,323.166,79.0
2,325.861,109.0
3,328.553,74.0
4,331.243,99.0
5,333.93,152.0
6,336.615,113.0
7,339.297,123.0
8,341.976,153.0
9,344.653,173.0
10,347.327,165.0
11,349.998,208.0
12,352.666,282.0
13,355.331,253.0
14,357.994,344.0
15,360.653,491.0
16,363.309,769.0
17,365.962,1359.0
18,368.612,3064.0
19,371.259,7190.0
20,373.903,15487.0
21,376.543,29256.0
22,379.18,47190.0
23,381.813,53347.0
24,384.443,53487.0
25,387.07,53631.0
26,389.693,53185.0
27,392.313,53431.0
28,394.929,52599.0
29,397.541,42119.0
30,400.15,30312.0
31,402.755,21097.0
32,405.356,14066.0
33,407.954,9045.0
34,410.547,6179.0
35,413.137,4172.0
36,415.723,2859.0
37,418.305,2047.0
38,420.883,1496.0
39,423.457,1161.0
40,426.027,901.0
41,428.593,718.0
42,431.154,637.0
43,433.712,584.0
44,436.265,536.0
45,438.814,531.0
46,441.359,464.0
47,443.9,494.0
48,446.436,448.0
49,448.967,484.0
50,451.495,461.0
51,454.018,480.0
52,456.536,466.0
53,459.05,444.0
54,461.559,470.0
55,464.064,510.0
56,466.564,507.0
57,469.06,472.0
58,471.551,580.0
59,474.037,507.0
60,476.518,457.0
61,478.995,480.0
62,481.467,489.0
63,483.934,476.0
64,486.396,481.0
65,488.853,522.0
66,491.305,509.0
67,493.753,487.0
68,496.195,564.0
69,498.632,570.0
70,501.065,530.0
71,503.492,571.0
72,505.914,579.0
73,508.332,605.0
74,510.743,551.0
75,513.15,644.0
76,515.552,611.0
77,517.948,602.0
78,520.339,588.0
79,522.725,601.0
80,525.106,556.0
81,527.481,585.0
82,529.851,630.0
83,532.216,556.0
84,534.575,549.0
85,536.929,556.0
86,539.277,548.0
87,541.62,523.0
88,543.957,500.0
89,546.289,448.0
90,548.616,418.0
91,550.936,391.0
92,553.252,401.0
93,555.561,378.0
94,557.865,365.0
95,560.164,357.0
96,562.457,333.0
97,564.744,290.0
98,567.025,287.0
99,569.301,308.0
100,571.571,309.0
101,573.835,255.0
102,576.093,262.0
103,578.346,228.0
104,580.593,318.0
105,582.834,270.0
106,585.069,222.0
107,587.299,199.0
108,589.522,222.0
109,591.74,185.0
110,593.952,174.0
111,596.158,184.0
112,598.358,176.0
113,600.551,174.0
114,602.739,143.0
115,604.922,141.0
116,607.098,130.0
117,609.268,174.0
118,611.432,135.0
119,613.59,131.0
120,615.742,134.0
121,617.887,115.0
122,620.027,143.0
123,622.161,102.0
124,624.289,112.0
125,626.41,97.0
126,628.526,118.0
127,630.635,82.0
128,632.738,96.0
129,634.835,76.0
130,636.926,72.0
131,639.011,66.0
132,641.089,126.0
133,643.162,79.0
134,645.228,52.0
135,647.288,74.0
136,649.341,63.0
137,651.389,40.0
138,653.43,32.0
139,655.465,58.0
140,657.494,43.0
141,659.516,56.0
142,661.532,45.0
143,663.542,38.0
144,665.546,55.0
145,667.543,55.0
146,669.535,33.0
147,671.519,60.0
148,673.498,34.0
149,675.47,31.0
150,677.436,35.0
151,679.396,60.0
152,681.349,28.0
153,683.296,28.0
154,685.236,75.0
155,687.171,42.0
156,689.099,16.0
157,691.02,58.0
158,692.935,26.0
159,694.844,3.0
160,696.747,17.0
161,698.643,13.0
162,700.533,3.0
163,702.416,35.0
164,704.293,13.0
165,706.164,1.0
166,708.029,21.0
167,709.887,21.0
168,711.738,35.0
169,713.584,1.0
170,715.423,5.0
171,717.255,30.0
172,719.082,-24.0
173,720.901,4.0
174,722.715,34.0
175,724.522,6.0
176,726.323,-1.0
177,728.117,21.0
178,729.905,-14.0
179,731.687,16.0
180,733.462,13.0
181,735.232,18.0
182,736.994,4.0
183,738.751,1.0
184,740.501,46.0
185,742.244,29.0
186,743.982,-11.0
187,745.713,-5.0
188,747.437,-9.0
189,749.156,-13.0
190,750.868,17.0
191,752.573,8.0
192,754.273,25.0
193,755.966,29.0
194,757.653,20.0
195,759.333,17.0
196,761.008,16.0
197,762.676,0.0
198,764.337,12.0
199,765.993,-4.0
200,767.642,-12.0
201,769.285,24.0
202,770.922,8.0
203,772.552,-7.0
204,774.176,-35.0
205,775.795,9.0
206,777.406,-30.0
207,779.012,9.0
208,780.611,-1.0
209,782.205,21.0
210,783.792,-20.0
211,785.373,-3.0
212,786.947,12.0
213,788.516,-3.0
214,790.078,2.0
215,791.635,9.0
216,793.185,17.0
217,794.729,27.0
218,796.267,21.0
219,797.799,-5.0
220,799.325,-5.0
221,800.844,36.0
222,802.358,11.0
223,803.866,1.0
224,805.368,-15.0
225,806.863,-5.0
226,808.353,20.0
227,809.836,15.0
228,811.314,2.0
229,812.786,2.0
230,814.252,-13.0
231,815.711,12.0
232,817.165,16.0
233,818.613,-11.0
234,820.055,6.0
235,821.491,25.0
236,822.922,-24.0
237,824.346,11.0
238,825.765,10.0
239,827.178,-16.0
240,828.585,9.0
241,829.986,-20.0
242,831.381,8.0
243,832.771,20.0
244,834.155,3.0
245,835.533,4.0
246,836.906,-12.0
247,838.272,1.0
248,839.633,-23.0
249,840.989,-15.0
250,842.339,17.0
251,843.683,5.0
252,845.021,-31.0
253,846.354,-25.0
254,847.682,21.0
255,849.004,-7.0
256,850.32,-1.0
257,851.631,-26.0
258,852.936,-12.0
259,854.236,5.0
260,855.53,7.0
261,856.819,1.0
262,858.102,27.0
263,859.38,-11.0
264,860.653,-17.0
265,861.92,0.0
266,863.182,-16.0
267,864.439,8.0
268,865.69,22.0
269,866.936,2.0
270,868.177,15.0
271,869.412,21.0
272,870.642,-22.0
273,871.867,-38.0
274,873.087,-23.0
275,874.302,12.0
276,875.512,-12.0
277,876.716,-14.0
278,877.916,8.0
279,879.11,-25.0
280,880.299,-42.0
281,881.483,13.0
282,882.663,-14.0
283,883.837,21.0
284,885.006,29.0
285,886.17,-9.0
286,887.33,-12.0
287,888.484,10.0
