,Wavelength[nm],Average
0,320.469,9.0
1,323.166,91.0
2,325.861,74.0
3,328.553,93.0
4,331.243,59.0
5,333.93,71.0
6,336.615,119.0
7,339.297,128.0
8,341.976,114.0
9,344.653,136.0
10,347.327,133.0
11,349.998,187.0
12,352.666,214.0
13,355.331,315.0
14,357.994,316.0
15,360.653,459.0
16,363.309,783.0
17,365.962,1428.0
18,368.612,2900.0
19,371.259,6854.0
20,373.903,14490.0
21,376.543,27569.0
22,379.18,44931.0
23,381.813,53155.0
24,384.443,53405.0
25,387.07,53614.0
26,389.693,53112.0
27,392.313,53390.0
28,394.929,51305.0
29,397.541,39327.0
30,400.15,28328.0
31,402.755,19452.0
32,405.356,13012.0
33,407.954,8529.0
34,410.547,5805.0
35,413.137,3967.0
36,415.723,2812.0
37,418.305,1929.0
38,420.883,1442.0
39,423.457,1159.0
40,426.027,922.0
41,428.593,746.0
42,431.154,676.0
43,433.712,600.0
44,436.265,529.0
45,438.814,534.0
46,441.359,504.0
47,443.9,526.0
48,446.436,487.0
49,448.967,481.0
50,451.495,567.0
51,454.018,576.0
52,456.536,556.0
53,459.05,547.0
54,461.559,472.0
55,464.064,588.0
56,466.564,570.0
57,469.06,551.0
58,471.551,531.0
59,474.037,492.0
60,476.518,538.0
61,478.995,472.0
62,481.467,490.0
63,483.934,472.0
64,486.396,478.0
65,488.853,480.0
66,491.305,471.0
67,493.753,427.0
68,496.195,476.0
69,498.632,454.0
70,501.065,430.0
71,503.492,474.0
72,505.914,427.0
73,508.332,429.0
74,510.743,394.0
75,513.15,444.0
76,515.552,436.0
77,517.948,430.0
78,520.339,412.0
79,522.725,416.0
80,525.106,367.0
81,527.481,402.0
82,529.851,412.0
83,532.216,379.0
84,534.575,363.0
85,536.929,331.0
86,539.277,311.0
87,541.62,328.0
88,543.957,322.0
89,546.289,298.0
90,548.616,277.0
91,550.936,264.0
92,553.252,287.0
93,555.561,266.0
94,557.865,235.0
95,560.164,227.0
96,562.457,221.0
97,564.744,194.0
98,567.025,180.0
99,569.301,179.0
100,571.571,171.0
101,573.835,189.0
102,576.093,195.0
103,578.346,195.0
104,580.593,183.0
105,582.834,204.0
106,585.069,155.0
107,587.299,167.0
108,589.522,144.0
109,591.74,161.0
110,593.952,140.0
111,596.158,104.0
112,598.358,94.0
113,600.551,87.0
114,602.739,96.0
115,604.922,111.0
116,607.098,110.0
117,609.268,86.0
118,611.432,123.0
119,613.59,58.0
120,615.742,109.0
121,617.887,115.0
122,620.027,94.0
123,622.161,98.0
124,624.289,98.0
125,626.41,79.0
126,628.526,87.0
127,630.635,79.0
128,632.738,88.0
129,634.835,86.0
130,636.926,84.0
131,639.011,49.0
132,641.089,52.0
133,643.162,60.0
134,645.228,49.0
135,647.288,57.0
136,649.341,31.0
137,651.389,36.0
138,653.43,33.0
139,655.465,56.0
140,657.494,38.0
141,659.516,32.0
142,661.532,74.0
143,663.542,17.0
144,665.546,38.0
145,667.543,62.0
146,669.535,24.0
147,671.519,26.0
148,673.498,42.0
149,675.47,33.0
150,677.436,14.0
151,679.396,50.0
152,681.349,13.0
153,683.296,12.0
154,685.236,46.0
155,687.171,56.0
156,689.099,32.0
157,691.02,53.0
158,692.935,35.0
159,694.844,37.0
160,696.747,36.0
161,698.643,-21.0
162,700.533,32.0
163,702.416,9.0
164,704.293,28.0
165,706.164,19.0
166,708.029,-31.0
167,709.887,53.0
168,711.738,14.0
169,713.584,35.0
170,715.423,0.0
171,717.255,27.0
172,719.082,27.0
173,720.901,23.0
174,722.715,-11.0
175,724.522,46.0
176,726.323,22.0
177,728.117,21.0
178,729.905,3.0
179,731.687,36.0
180,733.462,-12.0
181,735.232,28.0
182,736.994,43.0
183,738.751,-7.0
184,740.501,17.0
185,742.244,14.0
186,743.982,6.0
187,745.713,19.0
188,747.437,25.0
189,749.156,-28.0
190,750.868,14.0
191,752.573,8.0
192,754.273,5.0
193,755.966,9.0
194,757.653,20.0
195,759.333,2.0
196,761.008,7.0
197,762.676,45.0
198,764.337,11.0
199,765.993,26.0
200,767.642,13.0
201,769.285,-15.0
202,770.922,1.0
203,772.552,21.0
204,774.176,23.0
205,775.795,3.0
206,777.406,11.0
207,779.012,5.0
208,780.611,8.0
209,782.205,17.0
210,783.792,2.0
211,785.373,13.0
212,786.947,6.0
213,788.516,-5.0
214,790.078,35.0
215,791.635,-5.0
216,793.185,10.0
217,794.729,-17.0
218,796.267,-18.0
219,797.799,2.0
220,799.325,-10.0
221,800.844,17.0
222,802.358,5.0
223,803.866,8.0
224,805.368,7.0
225,806.863,3.0
226,808.353,3.0
227,809.836,7.0
228,811.314,24.0
229,812.786,-9.0
230,814.252,6.0
231,815.711,5.0
232,817.165,21.0
233,818.613,5.0
234,820.055,11.0
235,821.491,7.0
236,822.922,17.0
237,824.346,10.0
238,825.765,-26.0
239,827.178,19.0
240,828.585,-7.0
241,829.986,9.0
242,831.381,-7.0
243,832.771,-29.0
244,834.155,24.0
245,835.533,-11.0
246,836.906,24.0
247,838.272,-5.0
248,839.633,21.0
249,840.989,0.0
250,842.339,0.0
251,843.683,20.0
252,845.021,14.0
253,846.354,15.0
254,847.682,13.0
255,849.004,9.0
256,850.32,19.0
257,851.631,13.0
258,852.936,-17.0
259,854.236,6.0
260,855.53,10.0
261,856.819,44.0
262,858.102,-1.0
263,859.38,30.0
264,860.653,2.0
265,861.92,0.0
266,863.182,11.0
267,864.439,32.0
268,865.69,8.0
269,866.936,37.0
270,868.177,-9.0
271,869.412,29.0
272,870.642,-17.0
273,871.867,-4.0
274,873.087,-3.0
275,874.302,10.0
276,875.512,11.0
277,876.716,-2.0
278,877.916,32.0
279,879.11,4.0
280,880.299,11.0
281,881.483,-2.0
282,882.663,15.0
283,883.837,27.0
284,885.006,23.0
285,886.17,-8.0
286,887.33,-15.0
287,888.484,-25.0
