,Wavelength[nm],Average
0,320.469,-1.0
1,323.166,92.0
2,325.861,64.0
3,328.553,94.0
4,331.243,106.0
5,333.93,89.0
6,336.615,85.0
7,339.297,118.0
8,341.976,134.0
9,344.653,146.0
10,347.327,169.0
11,349.998,209.0
12,352.666,212.0
13,355.331,266.0
14,357.994,379.0
15,360.653,502.0
16,363.309,765.0
17,365.962,1420.0
18,368.612,3020.0
19,371.259,6920.0
20,373.903,14860.0
21,376.543,28070.0
22,379.18,44831.0
23,381.813,52827.0
24,384.443,53427.0
25,387.07,53589.0
26,389.693,53087.0
27,392.313,53327.0
28,394.929,49499.0
29,397.541,38977.0
30,400.15,27986.0
31,402.755,19272.0
32,405.356,12712.0
33,407.954,8478.0
34,410.547,5747.0
35,413.137,3950.0
36,415.723,2741.0
37,418.305,1977.0
38,420.883,1423.0
39,423.457,1125.0
40,426.027,903.0
41,428.593,724.0
42,431.154,634.0
43,433.712,593.0
44,436.265,544.0
45,438.814,543.0
46,441.359,484.0
47,443.9,508.0
48,446.436,494.0
49,448.967,526.0
50,451.495,495.0
51,454.018,501.0
52,456.536,531.0
53,459.05,558.0
54,461.559,572.0
55,464.064,516.0
56,466.564,551.0
57,469.06,539.0
58,471.551,513.0
59,474.037,569.0
60,476.518,492.0
61,478.995,501.0
62,481.467,521.0
63,483.934,471.0
64,486.396,473.0
65,488.853,460.0
66,491.305,481.0
67,493.753,523.0
68,496.195,447.0
69,498.632,425.0
70,501.065,453.0
71,503.492,451.0
72,505.914,442.0
73,508.332,428.0
74,510.743,427.0
75,513.15,445.0
76,515.552,466.0
77,517.948,413.0
78,520.339,398.0
79,522.725,373.0
80,525.106,389.0
81,527.481,398.0
82,529.851,430.0
83,532.216,335.0
84,534.575,389.0
85,536.929,377.0
86,539.277,358.0
87,541.62,386.0
88,543.957,305.0
89,546.289,270.0
90,548.616,273.0
91,550.936,300.0
92,553.252,260.0
93,555.561,252.0
94,557.865,257.0
95,560.164,213.0
96,562.457,221.0
97,564.744,222.0
98,567.025,187.0
99,569.301,198.0
100,571.571,193.0
101,573.835,190.0
102,576.093,191.0
103,578.346,133.0
104,580.593,178.0
105,582.834,161.0
106,585.069,161.0
107,587.299,211.0
108,589.522,169.0
109,591.74,155.0
110,593.952,151.0
111,596.158,135.0
112,598.358,123.0
113,600.551,95.0
114,602.739,110.0
115,604.922,101.0
116,607.098,90.0
117,609.268,109.0
118,611.432,84.0
119,613.59,94.0
120,615.742,87.0
121,617.887,97.0
122,620.027,75.0
123,622.161,76.0
124,624.289,61.0
125,626.41,91.0
126,628.526,91.0
127,630.635,46.0
128,632.738,90.0
129,634.835,73.0
130,636.926,51.0
131,639.011,49.0
132,641.089,42.0
133,643.162,46.0
134,645.228,65.0
135,647.288,71.0
136,649.341,75.0
137,651.389,20.0
138,653.43,46.0
139,655.465,57.0
140,657.494,27.0
141,659.516,17.0
142,661.532,37.0
143,663.542,61.0
144,665.546,37.0
145,667.543,54.0
146,669.535,66.0
147,671.519,36.0
148,673.498,50.0
149,675.47,66.0
150,677.436,42.0
151,679.396,49.0
152,681.349,47.0
153,683.296,10.0
154,685.236,35.0
155,687.171,58.0
156,689.099,39.0
157,691.02,54.0
158,692.935,8.0
159,694.844,22.0
160,696.747,6.0
161,698.643,11.0
162,700.533,38.0
163,702.416,24.0
164,704.293,21.0
165,706.164,32.0
166,708.029,32.0
167,709.887,7.0
168,711.738,40.0
169,713.584,29.0
170,715.423,25.0
171,717.255,21.0
172,719.082,30.0
173,720.901,-14.0
174,722.715,25.0
175,724.522,9.0
176,726.323,-3.0
177,728.117,-1.0
178,729.905,6.0
179,731.687,16.0
180,733.462,2.0
181,735.232,7.0
182,736.994,0.0
183,738.751,14.0
184,740.501,-5.0
185,742.244,20.0
186,743.982,13.0
187,745.713,10.0
188,747.437,3.0
189,749.156,41.0
190,750.868,-2.0
191,752.573,-3.0
192,754.273,-11.0
193,755.966,-5.0
194,757.653,-2.0
195,759.333,20.0
196,761.008,24.0
197,762.676,39.0
198,764.337,-20.0
199,765.993,6.0
200,767.642,30.0
201,769.285,8.0
202,770.922,47.0
203,772.552,2.0
204,774.176,1.0
205,775.795,6.0
206,777.406,-9.0
207,779.012,-7.0
208,780.611,0.0
209,782.205,1.0
210,783.792,9.0
211,785.373,4.0
212,786.947,17.0
213,788.516,41.0
214,790.078,26.0
215,791.635,14.0
216,793.185,-9.0
217,794.729,11.0
218,796.267,2.0
219,797.799,3.0
220,799.325,34.0
221,800.844,-12.0
222,802.358,32.0
223,803.866,13.0
224,805.368,-8.0
225,806.863,17.0
226,808.353,-16.0
227,809.836,14.0
228,811.314,-13.0
229,812.786,-34.0
230,814.252,13.0
231,815.711,-22.0
232,817.165,-2.0
233,818.613,10.0
234,820.055,-20.0
235,821.491,-2.0
236,822.922,-1.0
237,824.346,46.0
238,825.765,22.0
239,827.178,4.0
240,828.585,4.0
241,829.986,-2.0
242,831.381,7.0
243,832.771,-2.0
244,834.155,11.0
245,835.533,-3.0
246,836.906,10.0
247,838.272,-1.0
248,839.633,51.0
249,840.989,32.0
250,842.339,-2.0
251,843.683,2.0
252,845.021,1.0
253,846.354,10.0
254,847.682,-15.0
255,849.004,-18.0
256,850.32,8.0
257,851.631,12.0
258,852.936,-3.0
259,854.236,-7.0
260,855.53,21.0
261,856.819,19.0
262,858.102,-9.0
263,859.38,-8.0
264,860.653,12.0
265,861.92,6.0
266,863.182,14.0
267,864.439,32.0
268,865.69,24.0
269,866.936,1.0
270,868.177,-5.0
271,869.412,62.0
272,870.642,1.0
273,871.867,4.0
274,873.087,21.0
275,874.302,11.0
276,875.512,15.0
277,876.716,-12.0
278,877.916,13.0
279,879.11,-3.0
280,880.299,16.0
281,881.483,-9.0
282,882.663,11.0
283,883.837,27.0
284,885.006,-20.0
285,886.17,2.0
286,887.33,-2.0
287,888.484,6.0
