,Wavelength[nm],Average
0,320.469,5.0
1,323.166,101.0
2,325.861,89.0
3,328.553,104.0
4,331.243,115.0
5,333.93,117.0
6,336.615,138.0
7,339.297,138.0
8,341.976,162.0
9,344.653,166.0
10,347.327,173.0
11,349.998,206.0
12,352.666,249.0
13,355.331,295.0
14,357.994,397.0
15,360.653,540.0
16,363.309,854.0
17,365.962,1559.0
18,368.612,3361.0
19,371.259,7651.0
20,373.903,16319.0
21,376.543,30807.0
22,379.18,48928.0
23,381.813,53294.0
24,384.443,53412.0
25,387.07,53604.0
26,389.693,53022.0
27,392.313,53388.0
28,394.929,53107.0
29,397.541,43735.0
30,400.15,31946.0
31,402.755,21931.0
32,405.356,14612.0
33,407.954,9507.0
34,410.547,6516.0
35,413.137,4332.0
36,415.723,2917.0
37,418.305,2053.0
38,420.883,1478.0
39,423.457,1151.0
40,426.027,932.0
41,428.593,784.0
42,431.154,635.0
43,433.712,595.0
44,436.265,554.0
45,438.814,553.0
46,441.359,495.0
47,443.9,496.0
48,446.436,471.0
49,448.967,469.0
50,451.495,467.0
51,454.018,520.0
52,456.536,495.0
53,459.05,481.0
54,461.559,492.0
55,464.064,509.0
56,466.564,492.0
57,469.06,506.0
58,471.551,503.0
59,474.037,484.0
60,476.518,489.0
61,478.995,519.0
62,481.467,494.0
63,483.934,555.0
64,486.396,526.0
65,488.853,588.0
66,491.305,636.0
67,493.753,650.0
68,496.195,635.0
69,498.632,686.0
70,501.065,698.0
71,503.492,696.0
72,505.914,747.0
73,508.332,720.0
74,510.743,743.0
75,513.15,746.0
76,515.552,713.0
77,517.948,755.0
78,520.339,781.0
79,522.725,753.0
80,525.106,732.0
81,527.481,711.0
82,529.851,736.0
83,532.216,766.0
84,534.575,699.0
85,536.929,691.0
86,539.277,691.0
87,541.62,632.0
88,543.957,644.0
89,546.289,597.0
90,548.616,567.0
91,550.936,532.0
92,553.252,528.0
93,555.561,544.0
94,557.865,477.0
95,560.164,456.0
96,562.457,431.0
97,564.744,413.0
98,567.025,406.0
99,569.301,364.0
100,571.571,380.0
101,573.835,373.0
102,576.093,345.0
103,578.346,345.0
104,580.593,335.0
105,582.834,302.0
106,585.069,280.0
107,587.299,320.0
108,589.522,275.0
109,591.74,234.0
110,593.952,250.0
111,596.158,231.0
112,598.358,238.0
113,600.551,214.0
114,602.739,183.0
115,604.922,204.0
116,607.098,186.0
117,609.268,198.0
118,611.432,178.0
119,613.59,158.0
120,615.742,152.0
121,617.887,134.0
122,620.027,134.0
123,622.161,146.0
124,624.289,120.0
125,626.41,151.0
126,628.526,134.0
127,630.635,115.0
128,632.738,101.0
129,634.835,121.0
130,636.926,103.0
131,639.011,91.0
132,641.089,59.0
133,643.162,99.0
134,645.228,85.0
135,647.288,63.0
136,649.341,81.0
137,651.389,91.0
138,653.43,70.0
139,655.465,55.0
140,657.494,62.0
141,659.516,54.0
142,661.532,54.0
143,663.542,53.0
144,665.546,27.0
145,667.543,51.0
146,669.535,61.0
147,671.519,25.0
148,673.498,21.0
149,675.47,10.0
150,677.436,58.0
151,679.396,37.0
152,681.349,29.0
153,683.296,57.0
154,685.236,26.0
155,687.171,29.0
156,689.099,21.0
157,691.02,34.0
158,692.935,35.0
159,694.844,13.0
160,696.747,30.0
161,698.643,46.0
162,700.533,35.0
163,702.416,33.0
164,704.293,15.0
165,706.164,2.0
166,708.029,2.0
167,709.887,4.0
168,711.738,6.0
169,713.584,7.0
170,715.423,23.0
171,717.255,3.0
172,719.082,21.0
173,720.901,25.0
174,722.715,-11.0
175,724.522,-10.0
176,726.323,-4.0
177,728.117,-9.0
178,729.905,1.0
179,731.687,-13.0
180,733.462,11.0
181,735.232,5.0
182,736.994,-14.0
183,738.751,-6.0
184,740.501,17.0
185,742.244,23.0
186,743.982,-19.0
187,745.713,-9.0
188,747.437,11.0
189,749.156,22.0
190,750.868,7.0
191,752.573,9.0
192,754.273,21.0
193,755.966,22.0
194,757.653,-17.0
195,759.333,-13.0
196,761.008,15.0
197,762.676,10.0
198,764.337,16.0
199,765.993,1.0
200,767.642,-28.0
201,769.285,9.0
202,770.922,17.0
203,772.552,-15.0
204,774.176,-29.0
205,775.795,18.0
206,777.406,12.0
207,779.012,-15.0
208,780.611,9.0
209,782.205,-12.0
210,783.792,-8.0
211,785.373,6.0
212,786.947,25.0
213,788.516,-11.0
214,790.078,12.0
215,791.635,9.0
216,793.185,1.0
217,794.729,-5.0
218,796.267,6.0
219,797.799,11.0
220,799.325,-8.0
221,800.844,-20.0
222,802.358,21.0
223,803.866,-33.0
224,805.368,-2.0
225,806.863,5.0
226,808.353,11.0
227,809.836,0.0
228,811.314,-8.0
229,812.786,-8.0
230,814.252,-3.0
231,815.711,-17.0
232,817.165,2.0
233,818.613,-4.0
234,820.055,13.0
235,821.491,7.0
236,822.922,-4.0
237,824.346,28.0
238,825.765,-5.0
239,827.178,-22.0
240,828.585,1.0
241,829.986,25.0
242,831.381,8.0
243,832.771,-2.0
244,834.155,1.0
245,835.533,9.0
246,836.906,-16.0
247,838.272,-6.0
248,839.633,18.0
249,840.989,-34.0
250,842.339,9.0
251,843.683,-18.0
252,845.021,-7.0
253,846.354,11.0
254,847.682,4.0
255,849.004,39.0
256,850.32,-2.0
257,851.631,4.0
258,852.936,14.0
259,854.236,10.0
260,855.53,-27.0
261,856.819,-16.0
262,858.102,-18.0
263,859.38,-11.0
264,860.653,2.0
265,861.92,-20.0
266,863.182,-27.0
267,864.439,21.0
268,865.69,7.0
269,866.936,4.0
270,868.177,-16.0
271,869.412,13.0
272,870.642,9.0
273,871.867,26.0
274,873.087,-1.0
275,874.302,-2.0
276,875.512,-5.0
277,876.716,20.0
278,877.916,-4.0
279,879.11,3.0
280,880.299,-1.0
281,881.483,11.0
282,882.663,-13.0
283,883.837,-22.0
284,885.006,-2.0
285,886.17,3.0
286,887.33,-19.0
287,888.484,-9.0
