,Wavelength[nm],Average
0,320.469,7.0
1,323.166,117.0
2,325.861,109.0
3,328.553,121.0
4,331.243,105.0
5,333.93,137.0
6,336.615,176.0
7,339.297,149.0
8,341.976,174.0
9,344.653,185.0
10,347.327,252.0
11,349.998,260.0
12,352.666,252.0
13,355.331,340.0
14,357.994,422.0
15,360.653,585.0
16,363.309,1014.0
17,365.962,1771.0
18,368.612,3888.0
19,371.259,8791.0
20,373.903,18746.0
21,376.543,34878.0
22,379.18,51731.0
23,381.813,53283.0
24,384.443,53355.0
25,387.07,53580.0
26,389.693,53027.0
27,392.313,53360.0
28,394.929,53228.0
29,397.541,48074.0
30,400.15,35897.0
31,402.755,25020.0
32,405.356,16802.0
33,407.954,10919.0
34,410.547,7286.0
35,413.137,5022.0
36,415.723,3396.0
37,418.305,2293.0
38,420.883,1732.0
39,423.457,1273.0
40,426.027,1093.0
41,428.593,925.0
42,431.154,755.0
43,433.712,700.0
44,436.265,626.0
45,438.814,589.0
46,441.359,585.0
47,443.9,600.0
48,446.436,550.0
49,448.967,542.0
50,451.495,531.0
51,454.018,554.0
52,456.536,566.0
53,459.05,546.0
54,461.559,572.0
55,464.064,623.0
56,466.564,627.0
57,469.06,595.0
58,471.551,608.0
59,474.037,610.0
60,476.518,574.0
61,478.995,590.0
62,481.467,643.0
63,483.934,656.0
64,486.396,679.0
65,488.853,674.0
66,491.305,733.0
67,493.753,740.0
68,496.195,782.0
69,498.632,780.0
70,501.065,764.0
71,503.492,798.0
72,505.914,845.0
73,508.332,846.0
74,510.743,933.0
75,513.15,911.0
76,515.552,821.0
77,517.948,870.0
78,520.339,923.0
79,522.725,874.0
80,525.106,855.0
81,527.481,856.0
82,529.851,891.0
83,532.216,861.0
84,534.575,837.0
85,536.929,846.0
86,539.277,813.0
87,541.62,786.0
88,543.957,737.0
89,546.289,673.0
90,548.616,653.0
91,550.936,629.0
92,553.252,619.0
93,555.561,588.0
94,557.865,588.0
95,560.164,522.0
96,562.457,503.0
97,564.744,477.0
98,567.025,436.0
99,569.301,452.0
100,571.571,465.0
101,573.835,448.0
102,576.093,401.0
103,578.346,397.0
104,580.593,370.0
105,582.834,354.0
106,585.069,358.0
107,587.299,324.0
108,589.522,304.0
109,591.74,289.0
110,593.952,299.0
111,596.158,293.0
112,598.358,268.0
113,600.551,279.0
114,602.739,266.0
115,604.922,208.0
116,607.098,220.0
117,609.268,217.0
118,611.432,221.0
119,613.59,201.0
120,615.742,124.0
121,617.887,137.0
122,620.027,132.0
123,622.161,144.0
124,624.289,133.0
125,626.41,150.0
126,628.526,126.0
127,630.635,124.0
128,632.738,132.0
129,634.835,126.0
130,636.926,121.0
131,639.011,132.0
132,641.089,93.0
133,643.162,90.0
134,645.228,121.0
135,647.288,68.0
136,649.341,105.0
137,651.389,92.0
138,653.43,81.0
139,655.465,72.0
140,657.494,72.0
141,659.516,31.0
142,661.532,51.0
143,663.542,20.0
144,665.546,77.0
145,667.543,51.0
146,669.535,51.0
147,671.519,57.0
148,673.498,65.0
149,675.47,69.0
150,677.436,57.0
151,679.396,38.0
152,681.349,50.0
153,683.296,48.0
154,685.236,77.0
155,687.171,47.0
156,689.099,17.0
157,691.02,43.0
158,692.935,36.0
159,694.844,12.0
160,696.747,49.0
161,698.643,20.0
162,700.533,24.0
163,702.416,48.0
164,704.293,42.0
165,706.164,-1.0
166,708.029,33.0
167,709.887,21.0
168,711.738,10.0
169,713.584,40.0
170,715.423,21.0
171,717.255,30.0
172,719.082,40.0
173,720.901,36.0
174,722.715,23.0
175,724.522,17.0
176,726.323,39.0
177,728.117,13.0
178,729.905,2.0
179,731.687,-23.0
180,733.462,23.0
181,735.232,10.0
182,736.994,51.0
183,738.751,9.0
184,740.501,27.0
185,742.244,-4.0
186,743.982,12.0
187,745.713,1.0
188,747.437,-20.0
189,749.156,0.0
190,750.868,6.0
191,752.573,16.0
192,754.273,8.0
193,755.966,9.0
194,757.653,30.0
195,759.333,18.0
196,761.008,34.0
197,762.676,2.0
198,764.337,14.0
199,765.993,-19.0
200,767.642,-2.0
201,769.285,14.0
202,770.922,-13.0
203,772.552,26.0
204,774.176,47.0
205,775.795,6.0
206,777.406,-7.0
207,779.012,-16.0
208,780.611,-31.0
209,782.205,16.0
210,783.792,46.0
211,785.373,-7.0
212,786.947,20.0
213,788.516,10.0
214,790.078,11.0
215,791.635,-6.0
216,793.185,-14.0
217,794.729,9.0
218,796.267,6.0
219,797.799,-2.0
220,799.325,-4.0
221,800.844,7.0
222,802.358,-19.0
223,803.866,-3.0
224,805.368,-15.0
225,806.863,24.0
226,808.353,42.0
227,809.836,-4.0
228,811.314,-1.0
229,812.786,12.0
230,814.252,-17.0
231,815.711,22.0
232,817.165,25.0
233,818.613,1.0
234,820.055,-16.0
235,821.491,-21.0
236,822.922,13.0
237,824.346,-40.0
238,825.765,0.0
239,827.178,-27.0
240,828.585,12.0
241,829.986,17.0
242,831.381,8.0
243,832.771,11.0
244,834.155,27.0
245,835.533,20.0
246,836.906,12.0
247,838.272,21.0
248,839.633,0.0
249,840.989,15.0
250,842.339,30.0
251,843.683,1.0
252,845.021,13.0
253,846.354,0.0
254,847.682,-36.0
255,849.004,17.0
256,850.32,-3.0
257,851.631,-7.0
258,852.936,9.0
259,854.236,29.0
260,855.53,23.0
261,856.819,27.0
262,858.102,-2.0
263,859.38,22.0
264,860.653,-26.0
265,861.92,8.0
266,863.182,32.0
267,864.439,-18.0
268,865.69,21.0
269,866.936,-12.0
270,868.177,27.0
271,869.412,25.0
272,870.642,4.0
273,871.867,-21.0
274,873.087,-13.0
275,874.302,15.0
276,875.512,13.0
277,876.716,-21.0
278,877.916,-16.0
279,879.11,28.0
280,880.299,9.0
281,881.483,-26.0
282,882.663,26.0
283,883.837,22.0
284,885.006,35.0
285,886.17,11.0
286,887.33,-2.0
287,888.484,15.0
