,Wavelength[nm],Average
0,320.469,-1.0
1,323.166,92.0
2,325.861,118.0
3,328.553,122.0
4,331.243,166.0
5,333.93,120.0
6,336.615,173.0
7,339.297,188.0
8,341.976,203.0
9,344.653,236.0
10,347.327,240.0
11,349.998,273.0
12,352.666,342.0
13,355.331,418.0
14,357.994,541.0
15,360.653,732.0
16,363.309,1170.0
17,365.962,2149.0
18,368.612,4586.0
19,371.259,10599.0
20,373.903,22482.0
21,376.543,41122.0
22,379.18,53390.0
23,381.813,53375.0
24,384.443,53431.0
25,387.07,53627.0
26,389.693,53081.0
27,392.313,53425.0
28,394.929,53331.0
29,397.541,53202.0
30,400.15,42215.0
31,402.755,29654.0
32,405.356,19830.0
33,407.954,12862.0
34,410.547,8788.0
35,413.137,5857.0
36,415.723,4056.0
37,418.305,2788.0
38,420.883,2035.0
39,423.457,1582.0
40,426.027,1210.0
41,428.593,1052.0
42,431.154,919.0
43,433.712,786.0
44,436.265,682.0
45,438.814,686.0
46,441.359,633.0
47,443.9,629.0
48,446.436,636.0
49,448.967,591.0
50,451.495,591.0
51,454.018,665.0
52,456.536,664.0
53,459.05,638.0
54,461.559,623.0
55,464.064,633.0
56,466.564,676.0
57,469.06,649.0
58,471.551,648.0
59,474.037,640.0
60,476.518,702.0
61,478.995,680.0
62,481.467,653.0
63,483.934,708.0
64,486.396,693.0
65,488.853,745.0
66,491.305,761.0
67,493.753,799.0
68,496.195,803.0
69,498.632,872.0
70,501.065,874.0
71,503.492,835.0
72,505.914,927.0
73,508.332,980.0
74,510.743,991.0
75,513.15,991.0
76,515.552,979.0
77,517.948,956.0
78,520.339,953.0
79,522.725,956.0
80,525.106,963.0
81,527.481,957.0
82,529.851,975.0
83,532.216,959.0
84,534.575,883.0
85,536.929,908.0
86,539.277,876.0
87,541.62,821.0
88,543.957,784.0
89,546.289,746.0
90,548.616,745.0
91,550.936,718.0
92,553.252,672.0
93,555.561,615.0
94,557.865,611.0
95,560.164,576.0
96,562.457,530.0
97,564.744,506.0
98,567.025,484.0
99,569.301,510.0
100,571.571,447.0
101,573.835,428.0
102,576.093,407.0
103,578.346,415.0
104,580.593,394.0
105,582.834,389.0
106,585.069,373.0
107,587.299,371.0
108,589.522,317.0
109,591.74,328.0
110,593.952,284.0
111,596.158,295.0
112,598.358,271.0
113,600.551,293.0
114,602.739,263.0
115,604.922,235.0
116,607.098,227.0
117,609.268,184.0
118,611.432,201.0
119,613.59,176.0
120,615.742,146.0
121,617.887,171.0
122,620.027,167.0
123,622.161,184.0
124,624.289,157.0
125,626.41,153.0
126,628.526,124.0
127,630.635,114.0
128,632.738,123.0
129,634.835,115.0
130,636.926,116.0
131,639.011,111.0
132,641.089,123.0
133,643.162,75.0
134,645.228,108.0
135,647.288,69.0
136,649.341,72.0
137,651.389,65.0
138,653.43,62.0
139,655.465,94.0
140,657.494,95.0
141,659.516,54.0
142,661.532,73.0
143,663.542,37.0
144,665.546,92.0
145,667.543,62.0
146,669.535,55.0
147,671.519,37.0
148,673.498,31.0
149,675.47,44.0
150,677.436,36.0
151,679.396,66.0
152,681.349,33.0
153,683.296,6.0
154,685.236,49.0
155,687.171,18.0
156,689.099,75.0
157,691.02,33.0
158,692.935,38.0
159,694.844,12.0
160,696.747,30.0
161,698.643,25.0
162,700.533,41.0
163,702.416,38.0
164,704.293,-3.0
165,706.164,12.0
166,708.029,18.0
167,709.887,31.0
168,711.738,0.0
169,713.584,-16.0
170,715.423,7.0
171,717.255,-4.0
172,719.082,-8.0
173,720.901,15.0
174,722.715,10.0
175,724.522,-5.0
176,726.323,21.0
177,728.117,9.0
178,729.905,4.0
179,731.687,2.0
180,733.462,6.0
181,735.232,5.0
182,736.994,-9.0
183,738.751,11.0
184,740.501,-14.0
185,742.244,-23.0
186,743.982,-10.0
187,745.713,-20.0
188,747.437,51.0
189,749.156,12.0
190,750.868,-6.0
191,752.573,8.0
192,754.273,9.0
193,755.966,14.0
194,757.653,-11.0
195,759.333,1.0
196,761.008,-2.0
197,762.676,6.0
198,764.337,25.0
199,765.993,1.0
200,767.642,-2.0
201,769.285,-6.0
202,770.922,3.0
203,772.552,-17.0
204,774.176,2.0
205,775.795,4.0
206,777.406,5.0
207,779.012,-21.0
208,780.611,14.0
209,782.205,-16.0
210,783.792,9.0
211,785.373,-6.0
212,786.947,4.0
213,788.516,15.0
214,790.078,-6.0
215,791.635,-9.0
216,793.185,5.0
217,794.729,-22.0
218,796.267,-18.0
219,797.799,11.0
220,799.325,-4.0
221,800.844,-8.0
222,802.358,3.0
223,803.866,-1.0
224,805.368,17.0
225,806.863,-13.0
226,808.353,12.0
227,809.836,-3.0
228,811.314,-13.0
229,812.786,18.0
230,814.252,3.0
231,815.711,4.0
232,817.165,-13.0
233,818.613,-15.0
234,820.055,-8.0
235,821.491,-3.0
236,822.922,-35.0
237,824.346,-22.0
238,825.765,0.0
239,827.178,10.0
240,828.585,2.0
241,829.986,6.0
242,831.381,-27.0
243,832.771,-29.0
244,834.155,17.0
245,835.533,22.0
246,836.906,-7.0
247,838.272,-1.0
248,839.633,0.0
249,840.989,-12.0
250,842.339,4.0
251,843.683,-7.0
252,845.021,-2.0
253,846.354,26.0
254,847.682,10.0
255,849.004,-18.0
256,850.32,-23.0
257,851.631,22.0
258,852.936,1.0
259,854.236,4.0
260,855.53,-9.0
261,856.819,10.0
262,858.102,-10.0
263,859.38,-1.0
264,860.653,1.0
265,861.92,-4.0
266,863.182,-19.0
267,864.439,-5.0
268,865.69,-4.0
269,866.936,8.0
270,868.177,2.0
271,869.412,0.0
272,870.642,18.0
273,871.867,-10.0
274,873.087,-32.0
275,874.302,-13.0
276,875.512,12.0
277,876.716,-3.0
278,877.916,-20.0
279,879.11,-16.0
280,880.299,-21.0
281,881.483,-17.0
282,882.663,-25.0
283,883.837,-14.0
284,885.006,-8.0
285,886.17,5.0
286,887.33,-11.0
287,888.484,2.0
