,Wavelength[nm],Average
0,320.469,1.0
1,323.166,76.0
2,325.861,70.0
3,328.553,99.0
4,331.243,129.0
5,333.93,120.0
6,336.615,111.0
7,339.297,111.0
8,341.976,116.0
9,344.653,153.0
10,347.327,155.0
11,349.998,169.0
12,352.666,194.0
13,355.331,228.0
14,357.994,243.0
15,360.653,366.0
16,363.309,570.0
17,365.962,1090.0
18,368.612,2268.0
19,371.259,5268.0
20,373.903,11507.0
21,376.543,21856.0
22,379.18,36614.0
23,381.813,50641.0
24,384.443,53420.0
25,387.07,53592.0
26,389.693,53159.0
27,392.313,53105.0
28,394.929,44131.0
29,397.541,31770.0
30,400.15,22546.0
31,402.755,15538.0
32,405.356,10246.0
33,407.954,6784.0
34,410.547,4498.0
35,413.137,3132.0
36,415.723,2184.0
37,418.305,1553.0
38,420.883,1149.0
39,423.457,870.0
40,426.027,761.0
41,428.593,587.0
42,431.154,549.0
43,433.712,474.0
44,436.265,456.0
45,438.814,441.0
46,441.359,419.0
47,443.9,411.0
48,446.436,431.0
49,448.967,415.0
50,451.495,422.0
51,454.018,429.0
52,456.536,433.0
53,459.05,443.0
54,461.559,440.0
55,464.064,437.0
56,466.564,462.0
57,469.06,411.0
58,471.551,397.0
59,474.037,429.0
60,476.518,408.0
61,478.995,436.0
62,481.467,390.0
63,483.934,366.0
64,486.396,403.0
65,488.853,356.0
66,491.305,362.0
67,493.753,372.0
68,496.195,410.0
69,498.632,400.0
70,501.065,359.0
71,503.492,414.0
72,505.914,390.0
73,508.332,383.0
74,510.743,357.0
75,513.15,360.0
76,515.552,373.0
77,517.948,383.0
78,520.339,424.0
79,522.725,344.0
80,525.106,340.0
81,527.481,367.0
82,529.851,349.0
83,532.216,357.0
84,534.575,315.0
85,536.929,353.0
86,539.277,309.0
87,541.62,278.0
88,543.957,298.0
89,546.289,318.0
90,548.616,267.0
91,550.936,272.0
92,553.252,233.0
93,555.561,212.0
94,557.865,236.0
95,560.164,173.0
96,562.457,184.0
97,564.744,196.0
98,567.025,194.0
99,569.301,210.0
100,571.571,200.0
101,573.835,160.0
102,576.093,168.0
103,578.346,178.0
104,580.593,197.0
105,582.834,156.0
106,585.069,158.0
107,587.299,139.0
108,589.522,128.0
109,591.74,169.0
110,593.952,140.0
111,596.158,134.0
112,598.358,122.0
113,600.551,123.0
114,602.739,124.0
115,604.922,103.0
116,607.098,143.0
117,609.268,87.0
118,611.432,108.0
119,613.59,95.0
120,615.742,90.0
121,617.887,68.0
122,620.027,107.0
123,622.161,95.0
124,624.289,60.0
125,626.41,65.0
126,628.526,67.0
127,630.635,78.0
128,632.738,99.0
129,634.835,51.0
130,636.926,75.0
131,639.011,73.0
132,641.089,33.0
133,643.162,59.0
134,645.228,63.0
135,647.288,51.0
136,649.341,52.0
137,651.389,35.0
138,653.43,52.0
139,655.465,17.0
140,657.494,62.0
141,659.516,16.0
142,661.532,37.0
143,663.542,77.0
144,665.546,22.0
145,667.543,24.0
146,669.535,60.0
147,671.519,29.0
148,673.498,61.0
149,675.47,33.0
150,677.436,10.0
151,679.396,54.0
152,681.349,42.0
153,683.296,20.0
154,685.236,32.0
155,687.171,20.0
156,689.099,38.0
157,691.02,18.0
158,692.935,36.0
159,694.844,40.0
160,696.747,28.0
161,698.643,21.0
162,700.533,33.0
163,702.416,11.0
164,704.293,22.0
165,706.164,9.0
166,708.029,18.0
167,709.887,47.0
168,711.738,-15.0
169,713.584,1.0
170,715.423,39.0
171,717.255,-6.0
172,719.082,5.0
173,720.901,20.0
174,722.715,27.0
175,724.522,16.0
176,726.323,20.0
177,728.117,1.0
178,729.905,2.0
179,731.687,-30.0
180,733.462,5.0
181,735.232,16.0
182,736.994,5.0
183,738.751,37.0
184,740.501,14.0
185,742.244,-5.0
186,743.982,12.0
187,745.713,0.0
188,747.437,21.0
189,749.156,1.0
190,750.868,2.0
191,752.573,32.0
192,754.273,23.0
193,755.966,-14.0
194,757.653,25.0
195,759.333,-16.0
196,761.008,-8.0
197,762.676,28.0
198,764.337,0.0
199,765.993,13.0
200,767.642,-18.0
201,769.285,28.0
202,770.922,33.0
203,772.552,-11.0
204,774.176,-7.0
205,775.795,-7.0
206,777.406,-8.0
207,779.012,-12.0
208,780.611,2.0
209,782.205,-1.0
210,783.792,18.0
211,785.373,7.0
212,786.947,30.0
213,788.516,-5.0
214,790.078,11.0
215,791.635,18.0
216,793.185,9.0
217,794.729,19.0
218,796.267,24.0
219,797.799,-1.0
220,799.325,12.0
221,800.844,7.0
222,802.358,-19.0
223,803.866,22.0
224,805.368,-20.0
225,806.863,30.0
226,808.353,-24.0
227,809.836,-18.0
228,811.314,-15.0
229,812.786,-12.0
230,814.252,4.0
231,815.711,-13.0
232,817.165,-5.0
233,818.613,14.0
234,820.055,0.0
235,821.491,10.0
236,822.922,3.0
237,824.346,17.0
238,825.765,21.0
239,827.178,-22.0
240,828.585,-17.0
241,829.986,-14.0
242,831.381,-1.0
243,832.771,-7.0
244,834.155,-15.0
245,835.533,6.0
246,836.906,14.0
247,838.272,7.0
248,839.633,4.0
249,840.989,-15.0
250,842.339,12.0
251,843.683,29.0
252,845.021,6.0
253,846.354,-21.0
254,847.682,-2.0
255,849.004,-4.0
256,850.32,0.0
257,851.631,19.0
258,852.936,27.0
259,854.236,-2.0
260,855.53,16.0
261,856.819,-1.0
262,858.102,30.0
263,859.38,-15.0
264,860.653,6.0
265,861.92,-13.0
266,863.182,-20.0
267,864.439,-22.0
268,865.69,-20.0
269,866.936,-12.0
270,868.177,14.0
271,869.412,18.0
272,870.642,-3.0
273,871.867,-28.0
274,873.087,-13.0
275,874.302,-24.0
276,875.512,-46.0
277,876.716,22.0
278,877.916,27.0
279,879.11,21.0
280,880.299,20.0
281,881.483,-19.0
282,882.663,-6.0
283,883.837,-11.0
284,885.006,-1.0
285,886.17,-1.0
286,887.33,-16.0
287,888.484,-2.0
