,Wavelength[nm],Average
0,320.469,1.0
1,323.166,88.0
2,325.861,121.0
3,328.553,121.0
4,331.243,144.0
5,333.93,141.0
6,336.615,144.0
7,339.297,219.0
8,341.976,182.0
9,344.653,230.0
10,347.327,212.0
11,349.998,280.0
12,352.666,304.0
13,355.331,424.0
14,357.994,530.0
15,360.653,737.0
16,363.309,1173.0
17,365.962,2139.0
18,368.612,4533.0
19,371.259,10365.0
20,373.903,22295.0
21,376.543,41011.0
22,379.18,53406.0
23,381.813,53352.0
24,384.443,53453.0
25,387.07,53588.0
26,389.693,53114.0
27,392.313,53427.0
28,394.929,53347.0
29,397.541,53305.0
30,400.15,42733.0
31,402.755,30071.0
32,405.356,20149.0
33,407.954,13144.0
34,410.547,8863.0
35,413.137,5976.0
36,415.723,4085.0
37,418.305,2842.0
38,420.883,2099.0
39,423.457,1565.0
40,426.027,1275.0
41,428.593,1031.0
42,431.154,871.0
43,433.712,830.0
44,436.265,712.0
45,438.814,700.0
46,441.359,636.0
47,443.9,610.0
48,446.436,638.0
49,448.967,677.0
50,451.495,620.0
51,454.018,646.0
52,456.536,668.0
53,459.05,677.0
54,461.559,629.0
55,464.064,641.0
56,466.564,655.0
57,469.06,680.0
58,471.551,723.0
59,474.037,671.0
60,476.518,672.0
61,478.995,664.0
62,481.467,703.0
63,483.934,743.0
64,486.396,738.0
65,488.853,784.0
66,491.305,831.0
67,493.753,842.0
68,496.195,858.0
69,498.632,855.0
70,501.065,925.0
71,503.492,934.0
72,505.914,965.0
73,508.332,954.0
74,510.743,976.0
75,513.15,1052.0
76,515.552,1015.0
77,517.948,974.0
78,520.339,1013.0
79,522.725,1019.0
80,525.106,990.0
81,527.481,1006.0
82,529.851,969.0
83,532.216,1009.0
84,534.575,984.0
85,536.929,941.0
86,539.277,895.0
87,541.62,898.0
88,543.957,836.0
89,546.289,778.0
90,548.616,786.0
91,550.936,709.0
92,553.252,689.0
93,555.561,638.0
94,557.865,629.0
95,560.164,610.0
96,562.457,605.0
97,564.744,500.0
98,567.025,516.0
99,569.301,490.0
100,571.571,524.0
101,573.835,468.0
102,576.093,427.0
103,578.346,433.0
104,580.593,389.0
105,582.834,405.0
106,585.069,368.0
107,587.299,359.0
108,589.522,358.0
109,591.74,338.0
110,593.952,290.0
111,596.158,300.0
112,598.358,260.0
113,600.551,288.0
114,602.739,237.0
115,604.922,253.0
116,607.098,246.0
117,609.268,226.0
118,611.432,210.0
119,613.59,199.0
120,615.742,186.0
121,617.887,194.0
122,620.027,164.0
123,622.161,170.0
124,624.289,128.0
125,626.41,143.0
126,628.526,101.0
127,630.635,105.0
128,632.738,112.0
129,634.835,98.0
130,636.926,120.0
131,639.011,99.0
132,641.089,99.0
133,643.162,98.0
134,645.228,88.0
135,647.288,84.0
136,649.341,83.0
137,651.389,60.0
138,653.43,89.0
139,655.465,78.0
140,657.494,65.0
141,659.516,65.0
142,661.532,47.0
143,663.542,65.0
144,665.546,84.0
145,667.543,74.0
146,669.535,66.0
147,671.519,56.0
148,673.498,72.0
149,675.47,39.0
150,677.436,50.0
151,679.396,35.0
152,681.349,49.0
153,683.296,97.0
154,685.236,38.0
155,687.171,37.0
156,689.099,22.0
157,691.02,37.0
158,692.935,53.0
159,694.844,39.0
160,696.747,35.0
161,698.643,30.0
162,700.533,13.0
163,702.416,7.0
164,704.293,11.0
165,706.164,32.0
166,708.029,25.0
167,709.887,10.0
168,711.738,12.0
169,713.584,26.0
170,715.423,5.0
171,717.255,18.0
172,719.082,16.0
173,720.901,18.0
174,722.715,6.0
175,724.522,-31.0
176,726.323,21.0
177,728.117,18.0
178,729.905,25.0
179,731.687,2.0
180,733.462,-25.0
181,735.232,2.0
182,736.994,37.0
183,738.751,16.0
184,740.501,7.0
185,742.244,-26.0
186,743.982,-6.0
187,745.713,19.0
188,747.437,19.0
189,749.156,5.0
190,750.868,-6.0
191,752.573,0.0
192,754.273,-9.0
193,755.966,13.0
194,757.653,-8.0
195,759.333,25.0
196,761.008,3.0
197,762.676,19.0
198,764.337,26.0
199,765.993,10.0
200,767.642,9.0
201,769.285,10.0
202,770.922,18.0
203,772.552,9.0
204,774.176,8.0
205,775.795,18.0
206,777.406,6.0
207,779.012,-9.0
208,780.611,-9.0
209,782.205,1.0
210,783.792,-25.0
211,785.373,2.0
212,786.947,-20.0
213,788.516,-19.0
214,790.078,5.0
215,791.635,6.0
216,793.185,-17.0
217,794.729,-4.0
218,796.267,-10.0
219,797.799,8.0
220,799.325,11.0
221,800.844,22.0
222,802.358,9.0
223,803.866,4.0
224,805.368,7.0
225,806.863,6.0
226,808.353,-27.0
227,809.836,8.0
228,811.314,18.0
229,812.786,-3.0
230,814.252,4.0
231,815.711,23.0
232,817.165,1.0
233,818.613,17.0
234,820.055,-2.0
235,821.491,-21.0
236,822.922,-17.0
237,824.346,-44.0
238,825.765,0.0
239,827.178,-19.0
240,828.585,23.0
241,829.986,2.0
242,831.381,-4.0
243,832.771,-7.0
244,834.155,-23.0
245,835.533,-8.0
246,836.906,-20.0
247,838.272,19.0
248,839.633,-8.0
249,840.989,-5.0
250,842.339,3.0
251,843.683,-8.0
252,845.021,10.0
253,846.354,22.0
254,847.682,13.0
255,849.004,-5.0
256,850.32,-17.0
257,851.631,-11.0
258,852.936,17.0
259,854.236,10.0
260,855.53,3.0
261,856.819,-5.0
262,858.102,33.0
263,859.38,-27.0
264,860.653,-17.0
265,861.92,-1.0
266,863.182,12.0
267,864.439,-4.0
268,865.69,5.0
269,866.936,-8.0
270,868.177,-10.0
271,869.412,23.0
272,870.642,6.0
273,871.867,14.0
274,873.087,2.0
275,874.302,10.0
276,875.512,-6.0
277,876.716,-21.0
278,877.916,-1.0
279,879.11,9.0
280,880.299,-3.0
281,881.483,19.0
282,882.663,-11.0
283,883.837,-4.0
284,885.006,-30.0
285,886.17,-7.0
286,887.33,-12.0
287,888.484,19.0
