,Wavelength[nm],Average
0,320.469,-4.0
1,323.166,79.0
2,325.861,72.0
3,328.553,82.0
4,331.243,96.0
5,333.93,124.0
6,336.615,78.0
7,339.297,106.0
8,341.976,108.0
9,344.653,114.0
10,347.327,165.0
11,349.998,175.0
12,352.666,218.0
13,355.331,275.0
14,357.994,335.0
15,360.653,509.0
16,363.309,803.0
17,365.962,1486.0
18,368.612,3315.0
19,371.259,7571.0
20,373.903,16163.0
21,376.543,30463.0
22,379.18,48576.0
23,381.813,53310.0
24,384.443,53422.0
25,387.07,53572.0
26,389.693,53093.0
27,392.313,53374.0
28,394.929,52930.0
29,397.541,42739.0
30,400.15,30753.0
31,402.755,21466.0
32,405.356,14198.0
33,407.954,9342.0
34,410.547,6348.0
35,413.137,4404.0
36,415.723,3083.0
37,418.305,2059.0
38,420.883,1545.0
39,423.457,1219.0
40,426.027,925.0
41,428.593,847.0
42,431.154,714.0
43,433.712,673.0
44,436.265,526.0
45,438.814,543.0
46,441.359,493.0
47,443.9,477.0
48,446.436,524.0
49,448.967,485.0
50,451.495,518.0
51,454.018,542.0
52,456.536,523.0
53,459.05,518.0
54,461.559,565.0
55,464.064,567.0
56,466.564,535.0
57,469.06,591.0
58,471.551,539.0
59,474.037,535.0
60,476.518,534.0
61,478.995,504.0
62,481.467,499.0
63,483.934,500.0
64,486.396,530.0
65,488.853,509.0
66,491.305,495.0
67,493.753,490.0
68,496.195,525.0
69,498.632,507.0
70,501.065,453.0
71,503.492,530.0
72,505.914,449.0
73,508.332,475.0
74,510.743,492.0
75,513.15,501.0
76,515.552,500.0
77,517.948,455.0
78,520.339,466.0
79,522.725,477.0
80,525.106,463.0
81,527.481,439.0
82,529.851,414.0
83,532.216,475.0
84,534.575,411.0
85,536.929,434.0
86,539.277,405.0
87,541.62,355.0
88,543.957,374.0
89,546.289,328.0
90,548.616,298.0
91,550.936,305.0
92,553.252,324.0
93,555.561,301.0
94,557.865,287.0
95,560.164,267.0
96,562.457,284.0
97,564.744,257.0
98,567.025,227.0
99,569.301,215.0
100,571.571,212.0
101,573.835,221.0
102,576.093,150.0
103,578.346,191.0
104,580.593,192.0
105,582.834,173.0
106,585.069,159.0
107,587.299,180.0
108,589.522,169.0
109,591.74,129.0
110,593.952,186.0
111,596.158,145.0
112,598.358,144.0
113,600.551,101.0
114,602.739,111.0
115,604.922,121.0
116,607.098,99.0
117,609.268,88.0
118,611.432,94.0
119,613.59,108.0
120,615.742,72.0
121,617.887,94.0
122,620.027,84.0
123,622.161,64.0
124,624.289,69.0
125,626.41,68.0
126,628.526,76.0
127,630.635,55.0
128,632.738,58.0
129,634.835,74.0
130,636.926,53.0
131,639.011,47.0
132,641.089,47.0
133,643.162,10.0
134,645.228,44.0
135,647.288,33.0
136,649.341,48.0
137,651.389,-9.0
138,653.43,41.0
139,655.465,29.0
140,657.494,6.0
141,659.516,33.0
142,661.532,17.0
143,663.542,43.0
144,665.546,31.0
145,667.543,54.0
146,669.535,40.0
147,671.519,37.0
148,673.498,48.0
149,675.47,18.0
150,677.436,18.0
151,679.396,-12.0
152,681.349,35.0
153,683.296,37.0
154,685.236,4.0
155,687.171,23.0
156,689.099,10.0
157,691.02,32.0
158,692.935,23.0
159,694.844,15.0
160,696.747,19.0
161,698.643,37.0
162,700.533,14.0
163,702.416,-5.0
164,704.293,18.0
165,706.164,1.0
166,708.029,2.0
167,709.887,-11.0
168,711.738,-8.0
169,713.584,10.0
170,715.423,0.0
171,717.255,12.0
172,719.082,3.0
173,720.901,2.0
174,722.715,-13.0
175,724.522,9.0
176,726.323,-4.0
177,728.117,-3.0
178,729.905,-50.0
179,731.687,11.0
180,733.462,-6.0
181,735.232,-12.0
182,736.994,-8.0
183,738.751,-8.0
184,740.501,6.0
185,742.244,-27.0
186,743.982,-26.0
187,745.713,-4.0
188,747.437,5.0
189,749.156,-25.0
190,750.868,28.0
191,752.573,-2.0
192,754.273,4.0
193,755.966,-19.0
194,757.653,7.0
195,759.333,5.0
196,761.008,-2.0
197,762.676,-8.0
198,764.337,-13.0
199,765.993,-5.0
200,767.642,1.0
201,769.285,-11.0
202,770.922,-14.0
203,772.552,-16.0
204,774.176,37.0
205,775.795,19.0
206,777.406,-7.0
207,779.012,2.0
208,780.611,-16.0
209,782.205,4.0
210,783.792,2.0
211,785.373,-42.0
212,786.947,-2.0
213,788.516,-27.0
214,790.078,-17.0
215,791.635,-23.0
216,793.185,0.0
217,794.729,-10.0
218,796.267,-13.0
219,797.799,-6.0
220,799.325,-35.0
221,800.844,-12.0
222,802.358,-39.0
223,803.866,-35.0
224,805.368,-16.0
225,806.863,18.0
226,808.353,20.0
227,809.836,-10.0
228,811.314,-28.0
229,812.786,-3.0
230,814.252,-18.0
231,815.711,-38.0
232,817.165,-29.0
233,818.613,-19.0
234,820.055,-23.0
235,821.491,-20.0
236,822.922,-6.0
237,824.346,9.0
238,825.765,-3.0
239,827.178,-5.0
240,828.585,-16.0
241,829.986,11.0
242,831.381,1.0
243,832.771,-6.0
244,834.155,-17.0
245,835.533,-13.0
246,836.906,-15.0
247,838.272,-3.0
248,839.633,4.0
249,840.989,4.0
250,842.339,-14.0
251,843.683,21.0
252,845.021,-23.0
253,846.354,3.0
254,847.682,-4.0
255,849.004,-19.0
256,850.32,-8.0
257,851.631,-18.0
258,852.936,-38.0
259,854.236,-12.0
260,855.53,-41.0
261,856.819,-10.0
262,858.102,6.0
263,859.38,-5.0
264,860.653,-35.0
265,861.92,-43.0
266,863.182,-25.0
267,864.439,-9.0
268,865.69,-12.0
269,866.936,-5.0
270,868.177,-43.0
271,869.412,-36.0
272,870.642,-38.0
273,871.867,-28.0
274,873.087,-19.0
275,874.302,-43.0
276,875.512,-5.0
277,876.716,-18.0
278,877.916,-4.0
279,879.11,-7.0
280,880.299,-18.0
281,881.483,-38.0
282,882.663,-5.0
283,883.837,-15.0
284,885.006,-5.0
285,886.17,-4.0
286,887.33,1.0
287,888.484,-12.0
