,Wavelength[nm],Average
0,320.469,1.0
1,323.166,3.444444
2,325.861,4.181818
3,328.553,2.25
4,331.243,1.113208
5,333.93,-5.2
6,336.615,1.413043
7,339.297,0.842105
8,341.976,2.102564
9,344.653,1.470588
10,347.327,0.793103
11,349.998,0.75
12,352.666,11.285714
13,355.331,0.694444
14,357.994,0.321429
15,360.653,1.609756
16,363.309,-11.5
17,365.962,1.0
18,368.612,2.393939
19,371.259,1.134615
20,373.903,1.06
21,376.543,1.416667
22,379.18,1.166667
23,381.813,2.9
24,384.443,0.263158
25,387.07,3.1875
26,389.693,1.291667
27,392.313,1.888889
28,394.929,0.886792
29,397.541,1.017857
30,400.15,1.271429
31,402.755,1.139535
32,405.356,1.225806
33,407.954,1.163265
34,410.547,1.065574
35,413.137,1.162791
36,415.723,0.99359
37,418.305,0.884058
38,420.883,1.00623
39,423.457,1.078125
40,426.027,1.040498
41,428.593,1.062084
42,431.154,1.047022
43,433.712,1.040481
44,436.265,1.064553
45,438.814,1.066138
46,441.359,1.088032
47,443.9,1.069442
48,446.436,1.053766
49,448.967,1.042484
50,451.495,1.040478
51,454.018,1.029171
52,456.536,1.036991
53,459.05,1.062509
54,461.559,1.057037
55,464.064,1.049618
56,466.564,1.067803
57,469.06,1.063889
58,471.551,1.089727
59,474.037,1.110748
60,476.518,1.090866
61,478.995,1.116149
62,481.467,1.119771
63,483.934,1.142112
64,486.396,1.160619
65,488.853,1.164393
66,491.305,1.177488
67,493.753,1.164578
68,496.195,1.199837
69,498.632,1.230893
70,501.065,1.213522
71,503.492,1.251762
72,505.914,1.259583
73,508.332,1.241045
74,510.743,1.258126
75,513.15,1.299452
76,515.552,1.288926
77,517.948,1.299053
78,520.339,1.329997
79,522.725,1.3337
80,525.106,1.330253
81,527.481,1.351471
82,529.851,1.334333
83,532.216,1.327885
84,534.575,1.348369
85,536.929,1.348966
86,539.277,1.326446
87,541.62,1.346424
88,543.957,1.337378
89,546.289,1.349966
90,548.616,1.338624
91,550.936,1.342582
92,553.252,1.357679
93,555.561,1.372125
94,557.865,1.36064
95,560.164,1.383085
96,562.457,1.372404
97,564.744,1.351297
98,567.025,1.371409
99,569.301,1.371602
100,571.571,1.361439
101,573.835,1.3688
102,576.093,1.398425
103,578.346,1.388562
104,580.593,1.414615
105,582.834,1.40073
106,585.069,1.419796
107,587.299,1.409655
108,589.522,1.4303
109,591.74,1.408798
110,593.952,1.412932
111,596.158,1.408722
112,598.358,1.375015
113,600.551,1.392522
114,602.739,1.378092
115,604.922,1.372506
116,607.098,1.363084
117,609.268,1.376634
118,611.432,1.365854
119,613.59,1.345994
120,615.742,1.348925
121,617.887,1.322665
122,620.027,1.339728
123,622.161,1.341591
124,624.289,1.338441
125,626.41,1.340569
126,628.526,1.334274
127,630.635,1.333089
128,632.738,1.333585
129,634.835,1.353666
130,636.926,1.362632
131,639.011,1.341866
132,641.089,1.355379
133,643.162,1.3506
134,645.228,1.366034
135,647.288,1.366695
136,649.341,1.364732
137,651.389,1.343956
138,653.43,1.374484
139,655.465,1.37292
140,657.494,1.376075
141,659.516,1.37923
142,661.532,1.376042
143,663.542,1.334708
144,665.546,1.362111
145,667.543,1.375454
146,669.535,1.362692
147,671.519,1.345825
148,673.498,1.422162
149,675.47,1.364878
150,677.436,1.380952
151,679.396,1.385984
152,681.349,1.44379
153,683.296,1.424906
154,685.236,1.318008
155,687.171,1.417765
156,689.099,1.365907
157,691.02,1.411483
158,692.935,1.40099
159,694.844,1.48439
160,696.747,1.360153
161,698.643,1.354
162,700.533,1.354255
163,702.416,1.380841
164,704.293,1.387454
165,706.164,1.404729
166,708.029,1.442167
167,709.887,1.430159
168,711.738,1.308661
169,713.584,1.337152
170,715.423,1.500967
171,717.255,1.405295
172,719.082,1.395537
173,720.901,1.236786
174,722.715,1.409548
175,724.522,1.303665
176,726.323,1.334262
177,728.117,1.434524
178,729.905,1.259259
179,731.687,1.496241
180,733.462,1.332168
181,735.232,1.321033
182,736.994,1.313008
183,738.751,1.116541
184,740.501,1.627451
185,742.244,1.06278
186,743.982,1.455056
187,745.713,1.263682
188,747.437,1.118557
189,749.156,1.307229
190,750.868,1.204225
191,752.573,1.547009
192,754.273,1.03125
193,755.966,1.170068
194,757.653,1.537037
195,759.333,1.214286
196,761.008,1.390805
197,762.676,1.236842
198,764.337,0.888889
199,765.993,1.634921
200,767.642,0.882353
201,769.285,1.720588
202,770.922,1.109756
203,772.552,1.916667
204,774.176,0.78022
205,775.795,1.6
206,777.406,1.702703
207,779.012,2.764706
208,780.611,1.190476
209,782.205,0.954545
210,783.792,1.076923
211,785.373,1.377778
212,786.947,0.983333
213,788.516,1.070423
214,790.078,1.375
215,791.635,1.211538
216,793.185,0.792453
217,794.729,0.439394
218,796.267,1.4
219,797.799,1.517241
220,799.325,0.591837
221,800.844,1.25
222,802.358,2.466667
223,803.866,0.9
224,805.368,1.821429
225,806.863,1.971429
226,808.353,0.880952
227,809.836,1.617021
228,811.314,22.333334
229,812.786,1.193548
230,814.252,1.052632
231,815.711,8.75
232,817.165,0.421053
233,818.613,0.853659
234,820.055,1.258065
235,821.491,1.093023
236,822.922,2.625
237,824.346,1.244898
238,825.765,3.608696
239,827.178,1.707317
240,828.585,0.868421
241,829.986,0.813953
242,831.381,2.375
243,832.771,2.043478
244,834.155,39.0
245,835.533,2.0
246,836.906,1.325581
247,838.272,0.732143
248,839.633,-8.25
249,840.989,1.405405
250,842.339,0.795918
251,843.683,1.208333
252,845.021,4.909091
253,846.354,0.857143
254,847.682,2.0
255,849.004,0.942857
256,850.32,1.692308
257,851.631,1.6
258,852.936,0.819672
259,854.236,1.0
260,855.53,1.882353
261,856.819,1.06383
262,858.102,1.095238
263,859.38,1.104167
264,860.653,1.5
265,861.92,1.72973
266,863.182,1.763158
267,864.439,1.648649
268,865.69,4.277778
269,866.936,1.481481
270,868.177,1.571429
271,869.412,5.0
272,870.642,1.1
273,871.867,2.03125
274,873.087,3.75
275,874.302,1.034483
276,875.512,1.769231
277,876.716,1.0
278,877.916,0.722222
279,879.11,0.893939
280,880.299,3.0625
281,881.483,-15.25
282,882.663,1.405405
283,883.837,1.0
284,885.006,1.347826
285,886.17,11.2
286,887.33,0.8
287,888.484,-0.0
